Data from 20171114-ORNL-Ar_H_NY_Subt18_08-03-29-578.txt Node
Date: Tue Nov 14 08:03:29 EST 2017
User: Ender
Spectrometer: HR+D1039
Trigger mode: 0
Integration Time (sec): 2.730000E-2
Scans to average: 10
Electric dark correction enabled: true
Nonlinearity correction enabled: false
Boxcar width: 0
XAxis mode: Wavelengths
Number of Pixels in Spectrum: 2048
>>>>>Begin Spectral Data<<<<<
187.836	-6.11
188.309	-6.11
188.782	-6.11
189.255	-5.31
189.728	-3.41
190.201	10.49
190.674	0.99
191.147	8.69
191.619	-8.21
192.092	1.39
192.565	2.49
193.038	-2.61
193.511	-0.91
193.984	-1.41
194.456	-1.31
194.929	2.59
195.402	4.39
195.874	-1.71
196.347	-7.01
196.82	-5.01
197.292	6.19
197.765	-1.91
198.237	-9.41
198.71	-0.61
199.182	-0.81
199.655	-1.11
200.127	0.29
200.6	-0.71
201.072	-0.31
201.544	-3.41
202.017	-0.61
202.489	5.29
202.961	-0.91
203.433	-1.51
203.906	-4.71
204.378	-7.51
204.85	-7.11
205.322	-8.11
205.794	-0.61
206.266	-5.41
206.739	-7.01
207.211	-1.11
207.683	-11.71
208.155	-7.41
208.627	-7.21
209.099	-0.91
209.57	-5.31
210.042	-8.21
210.514	-2.31
210.986	-1.51
211.458	-5.81
211.93	-2.61
212.402	5.09
212.873	-5.41
213.345	-12.21
213.817	-8.71
214.288	-0.91
214.76	-13.51
215.232	-4.81
215.703	-6.61
216.175	-13.01
216.646	-4.41
217.118	-7.21
217.589	-3.81
218.061	-4.81
218.532	-8.01
219.004	-5.91
219.475	-9.01
219.946	-7.71
220.418	-9.91
220.889	1.99
221.36	-2.01
221.832	-4.41
222.303	-7.41
222.774	-0.81
223.245	-7.01
223.717	-4.31
224.188	-6.01
224.659	-5.61
225.13	-3.51
225.601	-4.71
226.072	2.69
226.543	-4.81
227.014	-2.71
227.485	-5.31
227.956	-9.51
228.427	-0.31
228.898	-5.21
229.369	4.89
229.839	-2.01
230.31	-7.01
230.781	4.29
231.252	-7.31
231.722	-9.01
232.193	-7.41
232.664	1.19
233.135	1.79
233.605	-6.01
234.076	-8.41
234.546	-3.01
235.017	0.29
235.487	-4.91
235.958	-11.21
236.428	-10.51
236.899	-5.31
237.369	-3.91
237.84	-8.11
238.31	-6.01
238.78	-5.21
239.251	-8.61
239.721	-5.01
240.191	-8.11
240.662	-8.31
241.132	-5.11
241.602	-9.31
242.072	-5.31
242.542	3.49
243.013	-6.21
243.483	-2.41
243.953	2.29
244.423	-5.31
244.893	-7.21
245.363	-5.61
245.833	-0.01
246.303	-6.31
246.773	1.59
247.243	-4.91
247.712	-9.01
248.182	-5.21
248.652	2.29
249.122	-7.21
249.592	-2.51
250.061	-0.61
250.531	5.19
251.001	-0.11
251.471	0.79
251.94	2.29
252.41	-4.51
252.879	-12.21
253.349	4.69
253.818	5.39
254.288	-1.31
254.757	-5.11
255.227	-14.21
255.696	-5.51
256.166	-2.41
256.635	-7.81
257.105	-1.81
257.574	-5.11
258.043	-0.91
258.513	-10.41
258.982	-5.91
259.451	-9.71
259.92	-2.21
260.389	-4.11
260.859	3.59
261.328	-3.31
261.797	-3.91
262.266	-8.81
262.735	0.69
263.204	-5.71
263.673	-12.51
264.142	-6.11
264.611	-12.31
265.08	-6.81
265.549	-5.71
266.018	-1.61
266.487	-11.51
266.955	-8.31
267.424	-10.31
267.893	-2.41
268.362	-10.21
268.83	-8.01
269.299	-1.11
269.768	1.29
270.236	-6.71
270.705	-8.71
271.174	-3.81
271.642	-3.31
272.111	-8.91
272.579	-2.61
273.048	-9.31
273.516	-8.41
273.985	-2.91
274.453	-8.31
274.922	7.79
275.39	-3.31
275.858	-9.81
276.327	-3.21
276.795	4.19
277.263	-6.71
277.731	-1.21
278.2	-6.21
278.668	-3.31
279.136	-5.11
279.604	-9.41
280.072	-5.51
280.54	0.89
281.008	-0.11
281.477	1.29
281.945	-4.01
282.413	0.29
282.881	-0.31
283.348	-6.11
283.816	0.69
284.284	1.79
284.752	8.09
285.22	-5.31
285.688	-7.31
286.156	-10.11
286.623	5.29
287.091	-4.81
287.559	-4.91
288.026	-2.31
288.494	-5.01
288.962	-15.31
289.429	-10.71
289.897	-1.91
290.364	-2.01
290.832	-2.31
291.3	-10.31
291.767	0.39
292.234	-1.71
292.702	-13.51
293.169	-6.31
293.637	-1.61
294.104	-2.91
294.571	-12.21
295.039	-6.01
295.506	-2.91
295.973	-3.21
296.44	-6.31
296.908	-7.51
297.375	-6.21
297.842	-3.31
298.309	-2.31
298.776	-7.91
299.243	-1.91
299.71	-7.61
300.177	-5.91
300.644	-5.71
301.111	-7.91
301.578	-3.81
302.045	-5.41
302.512	-3.41
302.979	1.19
303.446	-8.21
303.913	-6.81
304.379	-6.31
304.846	-1.51
305.313	-9.31
305.78	-4.71
306.246	-2.31
306.713	1.09
307.18	0.19
307.646	-2.51
308.113	-7.51
308.579	-2.41
309.046	-1.21
309.512	-5.31
309.979	-12.91
310.445	-0.01
310.912	1.79
311.378	5.59
311.845	-0.71
312.311	-2.91
312.777	-1.81
313.244	-0.81
313.71	6.89
314.176	-2.31
314.642	-3.81
315.109	-11.81
315.575	-0.51
316.041	0.09
316.507	-7.71
316.973	-10.31
317.439	-7.81
317.905	-1.71
318.371	-4.61
318.837	-3.81
319.303	-4.51
319.769	0.89
320.235	-7.81
320.701	-3.01
321.167	-4.21
321.633	-0.81
322.099	-4.41
322.564	-6.51
323.03	-2.11
323.496	-6.81
323.962	-5.71
324.427	-7.81
324.893	4.79
325.359	-5.31
325.824	-3.01
326.29	-7.41
326.755	-7.41
327.221	0.79
327.686	-0.21
328.152	-2.61
328.617	1.09
329.083	2.39
329.548	9.89
330.014	1.49
330.479	-5.01
330.944	-5.31
331.41	-3.41
331.875	0.09
332.34	-5.21
332.805	-1.51
333.271	6.39
333.736	-2.61
334.201	-0.61
334.666	-0.41
335.131	-2.51
335.596	-1.21
336.061	-5.41
336.526	-16.11
336.991	-4.41
337.456	3.89
337.921	0.39
338.386	-3.71
338.851	-1.81
339.316	-0.21
339.781	-0.81
340.246	-0.91
340.711	-6.71
341.175	-3.01
341.64	-11.41
342.105	-1.91
342.569	2.29
343.034	-2.21
343.499	-5.31
343.963	-9.61
344.428	3.09
344.893	-2.31
345.357	2.19
345.822	-3.01
346.286	3.49
346.751	4.09
347.215	-3.01
347.679	-0.61
348.144	0.29
348.608	-0.91
349.073	-3.91
349.537	1.39
350.001	-3.21
350.465	1.59
350.93	0.89
351.394	0.99
351.858	-6.61
352.322	0.49
352.786	-7.61
353.25	-8.31
353.715	6.49
354.179	-0.81
354.643	1.09
355.107	3.59
355.571	1.79
356.035	-4.11
356.498	-1.81
356.962	-8.31
357.426	3.19
357.89	-0.61
358.354	5.49
358.818	6.79
359.281	0.39
359.745	-3.71
360.209	-6.51
360.673	-6.81
361.136	-4.11
361.6	0.49
362.064	-0.31
362.527	-2.21
362.991	4.79
363.454	-1.61
363.918	-7.21
364.381	-8.31
364.845	-1.61
365.308	-1.11
365.772	-1.31
366.235	-0.91
366.698	-3.11
367.162	-0.81
367.625	-1.61
368.088	-3.11
368.552	3.09
369.015	2.79
369.478	-3.91
369.941	3.79
370.404	-4.81
370.867	1.59
371.331	-3.01
371.794	-4.91
372.257	-6.51
372.72	4.09
373.183	-3.31
373.646	-8.81
374.109	-7.81
374.572	0.99
375.035	-4.91
375.497	-3.41
375.96	2.49
376.423	-2.61
376.886	-1.31
377.349	-3.11
377.811	-1.71
378.274	-8.21
378.737	-1.61
379.199	-1.41
379.662	-4.01
380.125	-4.81
380.587	-10.01
381.05	-3.61
381.512	-3.41
381.975	4.99
382.437	6.09
382.9	-4.51
383.362	4.79
383.825	-1.91
384.287	-2.91
384.75	-4.81
385.212	-1.21
385.674	-2.91
386.136	5.39
386.599	-1.01
387.061	5.49
387.523	-1.61
387.985	-6.41
388.447	8.49
388.91	4.09
389.372	-4.11
389.834	-2.51
390.296	-2.71
390.758	0.89
391.22	-0.11
391.682	-0.51
392.144	7.39
392.606	3.79
393.068	4.79
393.529	0.69
393.991	-0.61
394.453	-4.21
394.915	2.89
395.377	6.39
395.838	5.69
396.3	1.79
396.762	2.89
397.224	0.39
397.685	1.29
398.147	-4.51
398.608	-2.21
399.07	-6.91
399.531	-1.01
399.993	-4.81
400.454	-3.51
400.916	3.79
401.377	-2.91
401.839	-2.11
402.3	-4.61
402.762	2.59
403.223	1.39
403.684	0.49
404.145	1.39
404.607	-2.51
405.068	5.19
405.529	-3.81
405.99	-2.11
406.451	-4.51
406.913	2.09
407.374	2.79
407.835	-3.41
408.296	0.99
408.757	-5.21
409.218	-1.91
409.679	-5.11
410.14	3.69
410.601	-0.41
411.062	4.39
411.522	3.09
411.983	-0.11
412.444	-4.51
412.905	5.29
413.366	-5.61
413.826	5.39
414.287	5.29
414.748	11.99
415.208	9.49
415.669	5.09
416.13	7.49
416.59	6.19
417.051	4.29
417.511	3.59
417.972	7.69
418.432	-2.01
418.893	15.59
419.353	9.59
419.814	1.49
420.274	-0.61
420.734	2.29
421.195	-2.41
421.655	-5.51
422.115	-2.81
422.576	1.39
423.036	3.89
423.496	5.59
423.956	6.29
424.416	5.29
424.876	3.49
425.336	-0.21
425.797	6.59
426.257	1.49
426.717	-0.71
427.177	11.99
427.637	-2.01
428.097	-0.61
428.556	-5.21
429.016	6.69
429.476	-2.21
429.936	3.29
430.396	-0.91
430.856	-3.41
431.315	7.99
431.775	8.49
432.235	7.99
432.694	3.79
433.154	7.99
433.614	3.69
434.073	3.99
434.533	9.19
434.993	-2.71
435.452	2.89
435.912	3.59
436.371	-1.31
436.83	3.39
437.29	8.99
437.749	1.79
438.209	4.39
438.668	-0.41
439.127	1.79
439.587	2.69
440.046	-2.81
440.505	6.39
440.964	6.79
441.424	1.89
441.883	-0.31
442.342	5.79
442.801	-0.41
443.26	-3.91
443.719	4.99
444.178	0.79
444.637	-9.51
445.096	-3.31
445.555	1.09
446.014	3.49
446.473	3.99
446.932	-1.31
447.391	-1.71
447.849	5.59
448.308	0.49
448.767	-6.31
449.226	6.99
449.685	2.39
450.143	12.29
450.602	4.99
451.061	-5.41
451.519	1.69
451.978	-1.21
452.436	-7.61
452.895	-1.21
453.353	6.59
453.812	7.79
454.27	6.09
454.729	4.49
455.187	-4.81
455.646	3.39
456.104	-3.21
456.562	4.99
457.021	3.19
457.479	-2.31
457.937	1.29
458.395	2.99
458.854	-3.61
459.312	0.99
459.77	-5.51
460.228	-4.01
460.686	-7.21
461.144	9.09
461.602	5.89
462.06	-1.21
462.518	9.29
462.976	-0.51
463.434	5.39
463.892	3.09
464.35	-8.41
464.808	6.79
465.266	-1.71
465.724	0.39
466.181	1.89
466.639	0.79
467.097	13.19
467.555	4.49
468.012	6.59
468.47	1.09
468.928	2.69
469.385	10.29
469.843	5.69
470.3	12.39
470.758	2.19
471.215	-0.01
471.673	9.59
472.13	5.09
472.588	8.49
473.045	-2.61
473.503	2.49
473.96	-1.31
474.417	1.39
474.875	2.99
475.332	9.59
475.789	8.99
476.246	12.59
476.704	0.09
477.161	4.19
477.618	-3.91
478.075	4.59
478.532	7.49
478.989	1.09
479.446	7.59
479.903	14.89
480.36	10.79
480.817	4.29
481.274	11.39
481.731	11.49
482.188	2.99
482.645	10.99
483.102	4.29
483.558	6.69
484.015	10.69
484.472	10.49
484.929	10.09
485.385	8.39
485.842	7.29
486.299	8.49
486.755	16.49
487.212	11.69
487.668	10.19
488.125	14.29
488.582	11.69
489.038	13.39
489.494	2.19
489.951	9.19
490.407	12.59
490.864	2.99
491.32	11.39
491.776	9.49
492.233	5.59
492.689	-1.71
493.145	9.29
493.602	4.29
494.058	12.09
494.514	9.99
494.97	11.69
495.426	3.59
495.882	9.19
496.338	7.79
496.794	7.89
497.251	3.49
497.707	15.19
498.163	4.59
498.618	11.89
499.074	6.29
499.53	8.89
499.986	6.19
500.442	5.89
500.898	1.09
501.354	5.39
501.809	7.89
502.265	6.79
502.721	7.29
503.177	11.29
503.632	14.29
504.088	15.09
504.543	16.69
504.999	10.19
505.455	5.19
505.91	13.19
506.366	13.39
506.821	9.09
507.277	6.59
507.732	3.89
508.187	11.09
508.643	9.29
509.098	7.09
509.553	9.89
510.009	13.29
510.464	2.99
510.919	11.19
511.375	6.39
511.83	13.69
512.285	7.89
512.74	16.79
513.195	15.59
513.65	6.39
514.105	13.59
514.56	12.19
515.015	14.99
515.47	17.19
515.925	12.19
516.38	10.19
516.835	24.19
517.29	8.49
517.745	15.89
518.2	14.19
518.655	9.79
519.109	5.89
519.564	12.69
520.019	5.29
520.474	5.69
520.928	3.59
521.383	11.89
521.838	3.89
522.292	10.59
522.747	19.59
523.201	18.29
523.656	18.19
524.11	15.19
524.565	6.79
525.019	5.19
525.474	4.79
525.928	7.39
526.382	11.69
526.837	6.89
527.291	7.39
527.745	14.09
528.2	7.09
528.654	1.79
529.108	7.89
529.562	6.99
530.016	3.89
530.47	3.29
530.925	1.69
531.379	1.29
531.833	8.99
532.287	7.19
532.741	7.09
533.195	-1.71
533.649	5.89
534.103	7.99
534.556	8.29
535.01	7.59
535.464	1.19
535.918	15.59
536.372	12.19
536.826	10.49
537.279	5.09
537.733	14.59
538.187	7.39
538.64	4.39
539.094	6.39
539.548	5.09
540.001	-0.61
540.455	6.79
540.908	8.39
541.362	14.19
541.815	16.59
542.269	15.19
542.722	10.89
543.175	7.19
543.629	6.59
544.082	12.39
544.536	9.09
544.989	10.49
545.442	7.99
545.895	12.39
546.349	10.19
546.802	10.09
547.255	16.19
547.708	10.59
548.161	8.39
548.614	12.29
549.067	16.59
549.52	9.19
549.973	13.89
550.426	9.29
550.879	2.69
551.332	7.59
551.785	14.49
552.238	9.09
552.691	11.69
553.144	13.69
553.596	9.69
554.049	8.89
554.502	12.29
554.955	13.79
555.407	13.99
555.86	10.49
556.313	11.79
556.765	11.09
557.218	15.99
557.67	12.19
558.123	8.19
558.576	10.49
559.028	11.79
559.48	10.29
559.933	15.49
560.385	8.29
560.838	10.79
561.29	13.99
561.742	9.79
562.195	6.79
562.647	-0.21
563.099	18.09
563.551	12.39
564.004	14.69
564.456	8.69
564.908	8.69
565.36	4.49
565.812	7.49
566.264	10.29
566.716	13.49
567.168	8.69
567.62	13.89
568.072	2.09
568.524	8.29
568.976	9.49
569.428	2.69
569.88	8.69
570.332	11.09
570.784	3.69
571.235	0.29
571.687	7.99
572.139	10.19
572.59	13.29
573.042	11.69
573.494	8.49
573.945	8.39
574.397	1.09
574.849	6.69
575.3	5.79
575.752	7.39
576.203	6.79
576.655	7.89
577.106	0.59
577.557	4.99
578.009	12.39
578.46	-1.81
578.912	2.59
579.363	4.19
579.814	4.99
580.265	4.89
580.717	3.69
581.168	2.59
581.619	12.49
582.07	4.99
582.521	1.09
582.972	1.59
583.423	3.69
583.875	2.39
584.326	-3.21
584.777	5.19
585.227	7.99
585.678	4.69
586.129	-3.41
586.58	11.29
587.031	9.49
587.482	14.39
587.933	16.39
588.384	3.89
588.834	13.79
589.285	8.39
589.736	10.29
590.186	7.29
590.637	8.89
591.088	11.19
591.538	9.09
591.989	12.19
592.439	17.49
592.89	11.29
593.34	0.79
593.791	7.29
594.241	8.19
594.692	9.29
595.142	0.59
595.593	3.49
596.043	3.99
596.493	1.39
596.943	9.99
597.394	2.69
597.844	4.09
598.294	3.59
598.744	15.29
599.195	9.69
599.645	14.29
600.095	9.99
600.545	15.89
600.995	18.89
601.445	21.09
601.895	21.29
602.345	26.89
602.795	20.99
603.245	13.99
603.695	8.69
604.145	7.39
604.594	7.99
605.044	7.09
605.494	5.69
605.944	0.09
606.393	10.49
606.843	4.19
607.293	7.49
607.743	4.09
608.192	10.89
608.642	11.89
609.091	6.99
609.541	8.59
609.99	9.79
610.44	11.09
610.889	3.49
611.339	2.49
611.788	2.09
612.238	5.89
612.687	16.99
613.136	9.39
613.586	9.19
614.035	4.09
614.484	3.29
614.933	-0.81
615.383	6.39
615.832	6.99
616.281	5.49
616.73	6.99
617.179	9.19
617.628	3.29
618.077	4.39
618.526	6.29
618.975	4.49
619.424	10.69
619.873	4.89
620.322	12.89
620.771	1.49
621.22	4.69
621.669	8.09
622.118	4.59
622.567	1.09
623.015	1.99
623.464	4.69
623.913	6.19
624.361	-2.21
624.81	-2.41
625.259	0.69
625.707	1.39
626.156	-0.51
626.604	9.19
627.053	4.29
627.501	-4.31
627.95	0.49
628.398	8.09
628.847	-5.41
629.295	-5.21
629.744	6.49
630.192	8.29
630.64	4.09
631.089	1.99
631.537	3.19
631.985	-2.31
632.433	10.29
632.881	-0.71
633.33	4.19
633.778	2.59
634.226	-2.51
634.674	2.49
635.122	2.29
635.57	1.39
636.018	4.89
636.466	9.59
636.914	-0.61
637.362	7.09
637.81	3.29
638.258	4.39
638.705	0.79
639.153	7.09
639.601	1.49
640.049	-7.41
640.497	-0.61
640.944	13.09
641.392	-1.71
641.84	8.99
642.287	6.09
642.735	-0.21
643.182	7.49
643.63	2.49
644.078	-2.81
644.525	9.59
644.973	5.09
645.42	0.59
645.867	-2.11
646.315	8.59
646.762	-3.11
647.21	4.59
647.657	-8.51
648.104	3.79
648.551	0.39
648.999	4.49
649.446	10.09
649.893	-5.61
650.34	-0.21
650.787	-1.41
651.234	8.99
651.682	-1.41
652.129	-2.21
652.576	-3.41
653.023	9.09
653.47	14.59
653.917	-2.91
654.363	5.89
654.81	7.69
655.257	-0.21
655.704	7.29
656.151	-0.91
656.598	1.89
657.044	2.79
657.491	3.69
657.938	-0.81
658.385	4.59
658.831	3.49
659.278	11.99
659.724	-1.71
660.171	9.49
660.618	-0.91
661.064	4.09
661.511	-1.71
661.957	5.99
662.404	3.89
662.85	7.59
663.296	3.69
663.743	5.09
664.189	3.59
664.635	0.49
665.082	0.09
665.528	4.89
665.974	1.19
666.42	6.89
666.867	7.09
667.313	0.89
667.759	7.39
668.205	3.09
668.651	2.19
669.097	3.19
669.543	-6.11
669.989	0.39
670.435	2.69
670.881	-1.11
671.327	1.39
671.773	6.29
672.219	-0.11
672.665	5.79
673.11	2.69
673.556	5.39
674.002	20.39
674.448	4.09
674.893	2.99
675.339	0.09
675.785	3.69
676.23	6.69
676.676	-3.61
677.122	-2.21
677.567	2.99
678.013	5.99
678.458	-3.51
678.904	7.79
679.349	-5.81
679.794	-1.91
680.24	-5.61
680.685	-0.31
681.131	-5.51
681.576	4.49
682.021	9.49
682.466	2.19
682.912	0.09
683.357	-6.11
683.802	5.49
684.247	6.99
684.692	6.19
685.137	4.69
685.583	11.49
686.028	7.69
686.473	3.69
686.918	-4.31
687.363	7.69
687.807	2.19
688.252	-1.31
688.697	9.99
689.142	-0.21
689.587	-2.01
690.032	-6.81
690.477	-5.51
690.921	-4.41
691.366	8.49
691.811	0.09
692.255	12.79
692.7	14.19
693.145	8.69
693.589	6.99
694.034	29.09
694.478	43.49
694.923	57.49
695.367	80.99
695.812	30.29
696.256	8.99
696.701	-1.31
697.145	7.99
697.59	8.39
698.034	0.19
698.478	7.59
698.922	1.49
699.367	1.59
699.811	4.09
700.255	6.69
700.699	2.49
701.143	2.59
701.588	1.99
702.032	13.49
702.476	0.59
702.92	3.19
703.364	6.09
703.808	10.69
704.252	28.99
704.696	42.39
705.14	47.99
705.584	68.39
706.027	22.19
706.471	0.99
706.915	-0.91
707.359	1.69
707.803	-5.91
708.246	-4.11
708.69	2.39
709.134	9.59
709.577	9.89
710.021	11.89
710.465	5.99
710.908	-2.21
711.352	-0.91
711.795	-6.01
712.239	2.99
712.682	-2.31
713.126	-0.41
713.569	5.29
714.012	5.39
714.456	-0.61
714.899	2.99
715.342	-4.81
715.786	-8.11
716.229	3.89
716.672	4.69
717.115	0.09
717.558	1.09
718.002	4.79
718.445	-3.11
718.888	6.49
719.331	5.19
719.774	0.49
720.217	1.49
720.66	-3.61
721.103	1.99
721.546	1.69
721.989	3.49
722.432	-11.91
722.874	4.19
723.317	-6.01
723.76	-5.11
724.203	-1.51
724.645	5.19
725.088	5.99
725.531	16.19
725.974	7.29
726.416	10.49
726.859	2.69
727.301	-2.61
727.744	2.39
728.187	-1.71
728.629	2.59
729.071	0.99
729.514	3.39
729.956	-3.21
730.399	0.99
730.841	5.49
731.283	-3.71
731.726	6.79
732.168	-1.71
732.61	-2.11
733.053	6.99
733.495	-9.41
733.937	-4.81
734.379	2.89
734.821	5.59
735.263	5.39
735.705	18.49
736.148	37.59
736.59	76.09
737.032	99.79
737.474	69.79
737.916	10.99
738.357	6.19
738.799	-4.31
739.241	-3.41
739.683	-1.41
740.125	-5.11
740.567	-5.91
741.008	2.89
741.45	6.09
741.892	12.29
742.334	11.19
742.775	0.99
743.217	-0.31
743.658	0.19
744.1	1.19
744.542	-6.71
744.983	0.79
745.425	0.29
745.866	-1.71
746.307	3.09
746.749	0.49
747.19	4.89
747.632	8.39
748.073	14.89
748.514	60.89
748.956	93.29
749.397	112.29
749.838	95.69
750.279	97.19
750.72	39.29
751.162	16.19
751.603	5.59
752.044	2.59
752.485	-8.01
752.926	1.19
753.367	4.49
753.808	1.69
754.249	2.89
754.69	-7.31
755.131	-7.91
755.572	-3.21
756.013	-1.61
756.453	-3.11
756.894	-1.21
757.335	2.39
757.776	5.29
758.216	0.99
758.657	-2.61
759.098	-5.71
759.538	-0.31
759.979	-6.81
760.42	0.79
760.86	4.19
761.301	38.89
761.741	127.09
762.182	194.59
762.622	126.89
763.063	30.89
763.503	16.09
763.943	0.69
764.384	1.99
764.824	1.29
765.264	0.89
765.705	-0.31
766.145	-0.41
766.585	-4.91
767.025	-8.11
767.465	-6.71
767.906	-0.01
768.346	4.59
768.786	-2.71
769.226	-0.61
769.666	5.99
770.106	13.89
770.546	44.39
770.986	91.59
771.426	88.99
771.866	19.89
772.306	4.99
772.745	-1.61
773.185	-4.11
773.625	-3.41
774.065	-1.21
774.505	-1.41
774.944	-4.61
775.384	-2.21
775.824	2.99
776.263	2.69
776.703	-4.31
777.142	-3.71
777.582	-3.31
778.021	-7.11
778.461	0.49
778.9	-2.21
779.34	3.59
779.779	-2.31
780.219	-10.61
780.658	-12.11
781.097	-5.91
781.537	-4.51
781.976	-4.21
782.415	-6.11
782.855	-7.11
783.294	-6.61
783.733	-1.11
784.172	-3.51
784.611	0.39
785.05	-1.71
785.489	-4.01
785.928	0.69
786.367	-0.11
786.806	-1.51
787.245	-2.91
787.684	0.89
788.123	4.89
788.562	-4.91
789.001	-2.21
789.44	-5.51
789.879	-4.61
790.317	-7.41
790.756	-0.21
791.195	-4.21
791.634	-1.81
792.072	10.29
792.511	9.09
792.95	31.29
793.388	66.49
793.827	58.89
794.265	8.09
794.704	-1.31
795.142	5.39
795.581	5.19
796.019	4.49
796.458	1.09
796.896	-6.51
797.334	-1.31
797.773	-4.51
798.211	7.49
798.649	11.99
799.087	29.99
799.526	48.09
799.964	59.39
800.402	72.29
800.84	16.49
801.278	-3.11
801.716	-2.21
802.154	0.59
802.592	5.09
803.03	1.89
803.468	-10.71
803.906	-7.71
804.344	7.79
804.782	6.19
