Data from 20171114-ORNL-Ar_H_NY_Subt18_08-03-44-865.txt Node
Date: Tue Nov 14 08:03:44 EST 2017
User: Ender
Spectrometer: HR+D1039
Trigger mode: 0
Integration Time (sec): 2.730000E-2
Scans to average: 10
Electric dark correction enabled: true
Nonlinearity correction enabled: false
Boxcar width: 0
XAxis mode: Wavelengths
Number of Pixels in Spectrum: 2048
>>>>>Begin Spectral Data<<<<<
187.836	-3.46
188.309	-3.46
188.782	-3.46
189.255	-2.06
189.728	-3.56
190.201	6.64
190.674	0.24
191.147	4.74
191.619	-10.06
192.092	5.74
192.565	2.74
193.038	-0.96
193.511	-0.66
193.984	-0.46
194.456	0.14
194.929	1.94
195.402	-3.36
195.874	2.44
196.347	-2.76
196.82	-3.66
197.292	9.24
197.765	-0.16
198.237	-1.26
198.71	4.54
199.182	2.74
199.655	4.94
200.127	2.74
200.6	-0.96
201.072	-0.66
201.544	1.44
202.017	-3.06
202.489	-1.26
202.961	-1.86
203.433	-1.96
203.906	-4.06
204.378	-1.66
204.85	-4.96
205.322	-8.06
205.794	-5.96
206.266	-2.86
206.739	-2.56
207.211	-2.86
207.683	-8.66
208.155	-8.96
208.627	-4.46
209.099	-1.46
209.57	-9.66
210.042	-1.46
210.514	-1.06
210.986	-1.86
211.458	-0.36
211.93	-2.56
212.402	1.74
212.873	-7.06
213.345	-4.86
213.817	-8.96
214.288	-5.16
214.76	-19.46
215.232	-2.56
215.703	-0.26
216.175	-5.66
216.646	-6.66
217.118	-6.06
217.589	0.04
218.061	-3.36
218.532	-2.16
219.004	2.44
219.475	-3.36
219.946	-4.56
220.418	-5.76
220.889	3.34
221.36	-2.76
221.832	1.54
222.303	-6.66
222.774	-1.16
223.245	-7.96
223.717	-5.56
224.188	-5.86
224.659	-6.46
225.13	-6.86
225.601	0.44
226.072	-1.26
226.543	-0.26
227.014	0.44
227.485	-5.16
227.956	-13.26
228.427	-2.56
228.898	-2.06
229.369	2.24
229.839	-4.56
230.31	-2.86
230.781	8.14
231.252	-4.26
231.722	1.54
232.193	-5.36
232.664	-6.96
233.135	0.64
233.605	-4.16
234.076	-5.96
234.546	-6.66
235.017	9.74
235.487	-0.06
235.958	-2.16
236.428	-4.56
236.899	-0.36
237.369	1.74
237.84	-7.36
238.31	5.84
238.78	-1.76
239.251	-4.66
239.721	-3.16
240.191	-2.46
240.662	-7.66
241.132	-5.26
241.602	-9.36
242.072	-6.96
242.542	5.04
243.013	-6.76
243.483	-3.96
243.953	2.34
244.423	-4.06
244.893	-5.66
245.363	0.34
245.833	2.54
246.303	-3.86
246.773	5.04
247.243	-3.86
247.712	-4.66
248.182	-2.66
248.652	-1.46
249.122	-6.96
249.592	-1.76
250.061	0.94
250.531	4.44
251.001	-4.56
251.471	4.84
251.94	6.84
252.41	-5.26
252.879	-2.66
253.349	6.04
253.818	1.24
254.288	0.54
254.757	0.24
255.227	-6.26
255.696	-1.86
256.166	-1.36
256.635	-0.06
257.105	2.04
257.574	-0.16
258.043	1.94
258.513	-2.06
258.982	-3.46
259.451	-0.56
259.92	-2.06
260.389	-1.46
260.859	11.14
261.328	3.34
261.797	6.14
262.266	-1.96
262.735	5.74
263.204	0.34
263.673	-1.56
264.142	0.64
264.611	-9.56
265.08	-1.76
265.549	-1.76
266.018	1.34
266.487	-4.56
266.955	-2.56
267.424	-0.26
267.893	5.44
268.362	-4.56
268.83	3.64
269.299	8.24
269.768	5.04
270.236	5.44
270.705	1.14
271.174	1.94
271.642	-0.26
272.111	0.94
272.579	3.04
273.048	-0.36
273.516	3.94
273.985	5.94
274.453	10.44
274.922	18.54
275.39	6.14
275.858	-2.46
276.327	12.34
276.795	12.04
277.263	2.14
277.731	2.44
278.2	2.04
278.668	6.34
279.136	3.64
279.604	2.14
280.072	4.34
280.54	9.04
281.008	2.74
281.477	9.44
281.945	12.14
282.413	9.94
282.881	10.04
283.348	3.54
283.816	4.44
284.284	7.54
284.752	16.84
285.22	6.94
285.688	5.74
286.156	8.24
286.623	11.04
287.091	8.84
287.559	9.74
288.026	8.34
288.494	10.24
288.962	3.64
289.429	9.74
289.897	15.94
290.364	9.24
290.832	11.54
291.3	3.54
291.767	13.44
292.234	16.54
292.702	5.24
293.169	7.94
293.637	16.24
294.104	10.54
294.571	1.64
295.039	4.14
295.506	10.04
295.973	11.34
296.44	13.94
296.908	12.34
297.375	10.84
297.842	7.74
298.309	8.94
298.776	10.24
299.243	12.24
299.71	7.44
300.177	12.04
300.644	13.04
301.111	15.74
301.578	17.64
302.045	11.84
302.512	14.94
302.979	12.74
303.446	15.64
303.913	12.14
304.379	7.74
304.846	15.44
305.313	18.24
305.78	16.04
306.246	19.44
306.713	18.34
307.18	13.64
307.646	17.94
308.113	17.84
308.579	16.14
309.046	18.14
309.512	17.84
309.979	11.14
310.445	25.84
310.912	20.14
311.378	27.84
311.845	24.64
312.311	21.04
312.777	29.34
313.244	19.44
313.71	28.94
314.176	22.84
314.642	23.04
315.109	24.14
315.575	26.54
316.041	35.34
316.507	27.34
316.973	32.74
317.439	24.64
317.905	27.54
318.371	24.84
318.837	21.34
319.303	23.34
319.769	27.54
320.235	30.54
320.701	28.64
321.167	27.54
321.633	21.54
322.099	27.14
322.564	31.34
323.03	31.84
323.496	32.74
323.962	33.14
324.427	25.84
324.893	31.64
325.359	28.74
325.824	36.44
326.29	29.14
326.755	30.74
327.221	32.74
327.686	30.94
328.152	43.64
328.617	33.54
329.083	38.14
329.548	38.14
330.014	46.04
330.479	32.74
330.944	41.24
331.41	30.04
331.875	36.24
332.34	36.04
332.805	34.94
333.271	37.74
333.736	32.14
334.201	47.24
334.666	43.14
335.131	46.84
335.596	42.54
336.061	45.04
336.526	41.64
336.991	43.24
337.456	48.54
337.921	43.04
338.386	39.84
338.851	37.64
339.316	44.54
339.781	48.64
340.246	43.14
340.711	45.04
341.175	49.24
341.64	43.74
342.105	47.94
342.569	51.64
343.034	54.14
343.499	50.44
343.963	49.04
344.428	61.54
344.893	59.84
345.357	58.54
345.822	55.84
346.286	59.64
346.751	54.74
347.215	58.64
347.679	64.34
348.144	85.94
348.608	73.24
349.073	67.24
349.537	68.54
350.001	64.44
350.465	86.54
350.93	79.54
351.394	79.94
351.858	71.14
352.322	78.64
352.786	75.34
353.25	84.44
353.715	91.54
354.179	86.54
354.643	105.54
355.107	103.54
355.571	96.04
356.035	95.84
356.498	100.14
356.962	99.54
357.426	115.34
357.89	96.44
358.354	86.44
358.818	81.04
359.281	81.24
359.745	79.34
360.209	81.74
360.673	78.04
361.136	83.24
361.6	84.34
362.064	81.74
362.527	81.84
362.991	87.64
363.454	80.94
363.918	79.54
364.381	89.74
364.845	83.94
365.308	93.14
365.772	92.44
366.235	90.24
366.698	87.24
367.162	91.04
367.625	89.44
368.088	91.24
368.552	89.14
369.015	97.44
369.478	92.64
369.941	98.24
370.404	95.24
370.867	101.54
371.331	106.34
371.794	106.94
372.257	100.34
372.72	105.94
373.183	108.84
373.646	101.24
374.109	104.14
374.572	103.84
375.035	106.04
375.497	108.94
375.96	107.74
376.423	108.74
376.886	115.64
377.349	119.04
377.811	107.34
378.274	109.64
378.737	109.54
379.199	117.24
379.662	116.84
380.125	110.94
380.587	116.44
381.05	115.44
381.512	122.84
381.975	130.94
382.437	131.14
382.9	125.84
383.362	132.84
383.825	134.54
384.287	127.74
384.75	125.54
385.212	135.44
385.674	142.74
386.136	141.34
386.599	125.54
387.061	129.44
387.523	126.94
387.985	127.74
388.447	137.14
388.91	134.64
389.372	139.54
389.834	135.34
390.296	132.04
390.758	139.04
391.22	147.04
391.682	154.94
392.144	153.24
392.606	145.44
393.068	147.04
393.529	160.04
393.991	156.94
394.453	147.94
394.915	151.04
395.377	140.44
395.838	146.84
396.3	149.24
396.762	149.74
397.224	152.44
397.685	148.34
398.147	146.14
398.608	154.24
399.07	146.44
399.531	148.24
399.993	163.14
400.454	172.94
400.916	167.84
401.377	161.34
401.839	164.34
402.3	161.64
402.762	178.94
403.223	187.84
403.684	185.84
404.145	182.94
404.607	175.34
405.068	173.64
405.529	182.84
405.99	198.04
406.451	189.74
406.913	191.24
407.374	181.54
407.835	183.24
408.296	184.64
408.757	183.34
409.218	200.44
409.679	193.64
410.14	198.54
410.601	203.94
411.062	205.84
411.522	201.04
411.983	201.34
412.444	192.14
412.905	206.94
413.366	203.94
413.826	226.24
414.287	242.74
414.748	303.34
415.208	284.74
415.669	237.74
416.13	239.94
416.59	235.94
417.051	247.44
417.511	246.94
417.972	280.34
418.432	294.34
418.893	337.44
419.353	293.24
419.814	226.24
420.274	209.24
420.734	201.54
421.195	223.34
421.655	212.54
422.115	217.84
422.576	218.64
423.036	223.64
423.496	227.24
423.956	242.94
424.416	256.44
424.876	302.74
425.336	287.84
425.797	291.64
426.257	276.44
426.717	266.54
427.177	254.34
427.637	250.84
428.097	259.84
428.556	273.24
429.016	287.44
429.476	284.84
429.936	295.74
430.396	305.14
430.856	305.74
431.315	328.94
431.775	362.04
432.235	396.04
432.694	373.34
433.154	371.74
433.614	385.54
434.073	354.24
434.533	302.14
434.993	283.54
435.452	298.94
435.912	303.74
436.371	289.54
436.83	288.54
437.29	274.34
437.749	263.04
438.209	264.54
438.668	281.64
439.127	286.04
439.587	272.74
440.046	259.64
440.505	274.04
440.964	280.94
441.424	316.44
441.883	309.54
442.342	276.74
442.801	247.14
443.26	250.34
443.719	250.74
444.178	249.14
444.637	235.54
445.096	242.34
445.555	246.54
446.014	240.84
446.473	249.64
446.932	263.84
447.391	258.54
447.849	253.64
448.308	248.04
448.767	239.44
449.226	262.24
449.685	263.64
450.143	274.44
450.602	262.74
451.061	255.34
451.519	253.34
451.978	251.74
452.436	249.14
452.895	255.14
453.353	267.14
453.812	256.74
454.27	257.14
454.729	258.14
455.187	261.74
455.646	265.14
456.104	267.74
456.562	274.04
457.021	283.94
457.479	272.14
457.937	284.04
458.395	275.74
458.854	262.14
459.312	264.04
459.77	286.64
460.228	264.84
460.686	266.14
461.144	271.44
461.602	275.34
462.06	273.14
462.518	281.64
462.976	275.64
463.434	274.94
463.892	280.44
464.35	289.74
464.808	304.24
465.266	284.54
465.724	292.34
466.181	301.04
466.639	296.04
467.097	307.04
467.555	320.24
468.012	318.14
468.47	334.34
468.928	343.34
469.385	361.94
469.843	355.14
470.3	354.54
470.758	360.94
471.215	390.14
471.673	406.94
472.13	413.54
472.588	420.34
473.045	387.44
473.503	396.54
473.96	418.44
474.417	424.24
474.875	434.44
475.332	470.44
475.789	473.34
476.246	491.54
476.704	496.94
477.161	520.04
477.618	536.24
478.075	561.64
478.532	616.94
478.989	667.54
479.446	753.54
479.903	744.74
480.36	787.34
480.817	824.14
481.274	912.84
481.731	1006.54
482.188	1088.14
482.645	1217.24
483.102	1291.44
483.558	1399.24
484.015	1449.54
484.472	1445.24
484.929	1389.44
485.385	1369.44
485.842	1339.04
486.299	1280.84
486.755	1213.34
487.212	1053.24
487.668	927.34
488.125	849.64
488.582	768.84
489.038	746.84
489.494	712.54
489.951	684.74
490.407	667.84
490.864	650.14
491.32	653.14
491.776	642.04
492.233	647.44
492.689	609.84
493.145	614.64
493.602	601.34
494.058	620.34
494.514	605.24
494.97	625.44
495.426	632.54
495.882	608.44
496.338	607.24
496.794	607.04
497.251	595.94
497.707	609.84
498.163	617.44
498.618	620.34
499.074	614.64
499.53	641.04
499.986	645.44
500.442	619.54
500.898	606.24
501.354	611.44
501.809	606.84
502.265	609.64
502.721	620.34
503.177	624.94
503.632	629.84
504.088	638.64
504.543	645.44
504.999	659.54
505.455	639.74
505.91	623.24
506.366	618.44
506.821	631.04
507.277	622.64
507.732	621.54
508.187	615.94
508.643	624.44
509.098	633.94
509.553	640.34
510.009	644.54
510.464	654.24
510.919	675.44
511.375	682.44
511.83	683.34
512.285	686.74
512.74	718.74
513.195	741.14
513.65	725.24
514.105	726.84
514.56	735.64
515.015	751.44
515.47	752.64
515.925	738.34
516.38	756.14
516.835	757.04
517.29	744.94
517.745	739.74
518.2	730.44
518.655	714.84
519.109	715.14
519.564	700.34
520.019	690.14
520.474	685.14
520.928	683.74
521.383	678.34
521.838	676.84
522.292	680.24
522.747	683.94
523.201	669.24
523.656	661.24
524.11	668.34
524.565	646.34
525.019	647.84
525.474	663.14
525.928	653.34
526.382	657.84
526.837	672.64
527.291	662.04
527.745	648.54
528.2	656.44
528.654	647.24
529.108	641.74
529.562	646.74
530.016	646.04
530.47	633.44
530.925	630.04
531.379	643.34
531.833	644.04
532.287	644.04
532.741	636.74
533.195	644.34
533.649	645.54
534.103	657.74
534.556	642.74
535.01	645.34
535.464	645.94
535.918	647.64
536.372	651.54
536.826	657.94
537.279	630.04
537.733	646.94
538.187	651.24
538.64	652.14
539.094	658.34
539.548	664.04
540.001	656.74
540.455	664.84
540.908	655.54
541.362	667.34
541.815	680.44
542.269	684.44
542.722	690.74
543.175	697.54
543.629	696.94
544.082	707.54
544.536	717.44
544.989	701.04
545.442	731.54
545.895	728.34
546.349	714.44
546.802	721.14
547.255	721.04
547.708	726.84
548.161	731.54
548.614	724.74
549.067	733.74
549.52	733.14
549.973	721.54
550.426	716.34
550.879	707.04
551.332	711.14
551.785	722.64
552.238	722.84
552.691	722.24
553.144	733.14
553.596	746.34
554.049	759.14
554.502	786.24
554.955	795.04
555.407	792.64
555.86	778.14
556.313	772.14
556.765	761.44
557.218	769.34
557.67	756.74
558.123	750.24
558.576	758.74
559.028	768.94
559.48	770.04
559.933	763.44
560.385	734.54
560.838	718.24
561.29	684.04
561.742	688.74
562.195	666.84
562.647	672.74
563.099	687.54
563.551	670.44
564.004	679.64
564.456	669.14
564.908	661.24
565.36	630.64
565.812	624.74
566.264	622.54
566.716	620.14
567.168	593.04
567.62	607.34
568.072	605.14
568.524	593.34
568.976	588.34
569.428	581.94
569.88	579.04
570.332	582.64
570.784	589.54
571.235	582.14
571.687	589.04
572.139	603.54
572.59	603.04
573.042	600.74
573.494	600.54
573.945	588.44
574.397	577.04
574.849	582.84
575.3	573.74
575.752	567.84
576.203	574.04
576.655	572.04
577.106	558.54
577.557	546.24
578.009	560.04
578.46	556.14
578.912	551.14
579.363	560.74
579.814	556.24
580.265	549.04
580.717	553.14
581.168	543.04
581.619	563.14
582.07	564.54
582.521	554.24
582.972	558.14
583.423	553.74
583.875	562.24
584.326	565.04
584.777	572.64
585.227	591.64
585.678	604.84
586.129	612.34
586.58	635.54
587.031	656.94
587.482	682.84
587.933	715.04
588.384	695.94
588.834	655.34
589.285	638.54
589.736	637.74
590.186	633.24
590.637	634.84
591.088	620.64
591.538	599.84
591.989	603.34
592.439	588.44
592.89	584.14
593.34	577.44
593.791	566.24
594.241	562.84
594.692	563.44
595.142	565.54
595.593	552.34
596.043	560.14
596.493	567.54
596.943	566.24
597.394	576.44
597.844	581.04
598.294	592.74
598.744	604.84
599.195	626.54
599.645	655.14
600.095	677.04
600.545	725.94
600.995	763.34
601.445	812.94
601.895	855.14
602.345	904.24
602.795	886.84
603.245	843.24
603.695	812.34
604.145	764.14
604.594	733.74
605.044	688.04
605.494	644.14
605.944	595.74
606.393	595.94
606.843	572.44
607.293	574.64
607.743	566.14
608.192	568.74
608.642	593.54
609.091	586.34
609.541	591.64
609.99	592.84
610.44	587.74
610.889	551.44
611.339	549.94
611.788	540.24
612.238	540.94
612.687	559.74
613.136	552.94
613.586	559.54
614.035	548.34
614.484	554.34
614.933	547.24
615.383	553.04
615.832	550.04
616.281	542.44
616.73	531.44
617.179	517.64
617.628	499.64
618.077	487.14
618.526	483.94
618.975	480.54
619.424	482.44
619.873	473.64
620.322	477.84
620.771	465.04
621.22	467.44
621.669	452.84
622.118	449.44
622.567	446.84
623.015	441.14
623.464	438.64
623.913	434.44
624.361	430.44
624.81	424.24
625.259	425.74
625.707	427.54
626.156	427.04
626.604	440.84
627.053	426.44
627.501	425.84
627.95	440.34
628.398	449.84
628.847	439.64
629.295	432.24
629.744	446.14
630.192	438.24
630.64	425.34
631.089	419.94
631.537	406.54
631.985	397.94
632.433	402.94
632.881	397.04
633.33	403.04
633.778	384.84
634.226	395.64
634.674	404.84
635.122	413.14
635.57	415.24
636.018	426.74
636.466	424.64
636.914	430.24
637.362	437.24
637.81	440.84
638.258	447.64
638.705	429.84
639.153	449.14
639.601	466.64
640.049	481.44
640.497	511.44
640.944	530.54
641.392	484.54
641.84	468.64
642.287	442.34
642.735	426.24
643.182	427.34
643.63	421.04
644.078	423.94
644.525	437.54
644.973	436.84
645.42	442.44
645.867	467.94
646.315	477.34
646.762	487.84
647.21	507.64
647.657	519.24
648.104	545.34
648.551	554.94
648.999	597.04
649.446	655.64
649.893	706.04
650.34	802.94
650.787	943.54
651.234	1152.54
651.682	1514.74
652.129	1992.64
652.576	2775.84
653.023	4051.64
653.47	5615.14
653.917	7088.84
654.363	8309.24
654.81	9406.94
655.257	8962.04
655.704	5951.14
656.151	3540.54
656.598	2325.74
657.044	1662.24
657.491	1290.04
657.938	1045.24
658.385	871.04
658.831	761.34
659.278	687.34
659.724	611.74
660.171	563.24
660.618	511.24
661.064	492.74
661.511	465.74
661.957	453.34
662.404	449.34
662.85	459.74
663.296	449.34
663.743	412.44
664.189	396.64
664.635	389.64
665.082	385.34
665.528	382.24
665.974	384.14
666.42	378.54
666.867	365.44
667.313	349.14
667.759	339.24
668.205	338.24
668.651	334.94
669.097	331.34
669.543	325.54
669.989	327.84
670.435	333.44
670.881	335.94
671.327	329.54
671.773	346.54
672.219	365.64
672.665	407.14
673.11	424.54
673.556	467.94
674.002	501.14
674.448	486.14
674.893	416.14
675.339	358.94
675.785	333.14
676.23	312.24
676.676	287.94
677.122	280.34
677.567	273.94
678.013	275.74
678.458	266.34
678.904	276.04
679.349	257.34
679.794	260.64
680.24	257.54
680.685	257.24
681.131	258.24
681.576	254.64
682.021	254.24
682.466	255.94
682.912	261.24
683.357	251.14
683.802	281.64
684.247	300.04
684.692	327.24
685.137	353.74
685.583	388.74
686.028	413.14
686.473	384.64
686.918	333.64
687.363	303.64
687.807	287.14
688.252	274.74
688.697	265.14
689.142	249.04
689.587	243.04
690.032	234.14
690.477	241.04
690.921	258.44
691.366	281.24
691.811	291.94
692.255	315.34
692.7	343.64
693.145	356.34
693.589	490.24
694.034	794.94
694.478	1102.34
694.923	1290.04
695.367	1723.84
695.812	913.24
696.256	372.74
696.701	269.34
697.145	253.74
697.59	234.74
698.034	238.74
698.478	242.04
698.922	230.24
699.367	235.54
699.811	238.14
700.255	253.34
700.699	274.54
701.143	307.14
701.588	334.84
702.032	376.94
702.476	380.74
702.92	359.24
703.364	362.44
703.808	447.64
704.252	711.84
704.696	1037.84
705.14	1247.34
705.584	1622.74
706.027	794.34
706.471	390.04
706.915	291.84
707.359	257.34
707.803	237.64
708.246	223.44
708.69	230.94
709.134	229.34
709.577	228.74
710.021	232.34
710.465	219.94
710.908	221.74
711.352	215.44
711.795	233.44
712.239	252.24
712.682	275.54
713.126	301.14
713.569	334.64
714.012	267.24
714.456	229.34
714.899	216.74
715.342	194.74
715.786	188.94
716.229	192.44
716.672	186.74
717.115	177.14
717.558	189.54
718.002	188.04
718.445	190.74
718.888	211.74
719.331	208.44
719.774	218.64
720.217	214.84
720.66	204.04
721.103	197.94
721.546	185.54
721.989	183.54
722.432	172.04
722.874	175.84
723.317	163.94
723.76	165.24
724.203	190.64
724.645	224.74
725.088	314.44
725.531	409.44
725.974	473.94
726.416	408.44
726.859	222.34
727.301	187.44
727.744	172.04
728.187	171.64
728.629	176.14
729.071	180.94
729.514	186.74
729.956	194.74
730.399	207.44
730.841	217.54
731.283	202.54
731.726	194.74
732.168	192.84
732.61	189.74
733.053	202.64
733.495	219.14
733.937	253.64
734.379	285.34
734.821	310.54
735.263	383.34
735.705	573.44
736.148	1088.44
736.59	1851.04
737.032	2323.44
737.474	1915.04
737.916	600.14
738.357	315.14
738.799	247.64
739.241	224.54
739.683	207.14
740.125	211.44
740.567	218.04
741.008	236.14
741.45	230.74
741.892	236.94
742.334	261.54
742.775	271.94
743.217	268.24
743.658	201.84
744.1	188.44
744.542	199.74
744.983	246.04
745.425	282.24
745.866	279.14
746.307	210.54
746.749	203.04
747.19	232.54
747.632	321.64
748.073	600.64
748.514	1288.74
748.956	2089.74
749.397	2621.04
749.838	2165.04
750.279	2263.04
750.72	1155.14
751.162	410.44
751.603	234.34
752.044	182.24
752.485	156.54
752.926	158.54
753.367	141.84
753.808	143.54
754.249	143.14
754.69	140.24
755.131	136.44
755.572	131.04
756.013	132.74
756.453	139.04
756.894	140.64
757.335	138.84
757.776	138.74
758.216	144.04
758.657	149.84
759.098	147.04
759.538	166.14
759.979	193.94
760.42	259.04
760.86	480.94
761.301	1253.84
761.741	3160.14
762.182	5001.94
762.622	3579.34
763.063	1002.94
763.503	405.04
