Data from 20171114-ORNL-Ar_H_NY_Subt18_08-04-15-165.txt Node
Date: Tue Nov 14 08:04:15 EST 2017
User: Ender
Spectrometer: HR+D1039
Trigger mode: 0
Integration Time (sec): 2.730000E-2
Scans to average: 10
Electric dark correction enabled: true
Nonlinearity correction enabled: false
Boxcar width: 0
XAxis mode: Wavelengths
Number of Pixels in Spectrum: 2048
>>>>>Begin Spectral Data<<<<<
187.836	-8.8
188.309	-8.8
188.782	-8.8
189.255	2.7
189.728	-3.6
190.201	10.3
190.674	2.5
191.147	1.7
191.619	-5.9
192.092	2.2
192.565	5.7
193.038	-1.8
193.511	-3.2
193.984	3.3
194.456	-2
194.929	0.7
195.402	-4.6
195.874	0.8
196.347	-4.4
196.82	-9.9
197.292	9.3
197.765	-0.7
198.237	-5.1
198.71	0.6
199.182	-4.8
199.655	3.3
200.127	0.9
200.6	-1.5
201.072	-3.9
201.544	-10
202.017	-1.2
202.489	1.2
202.961	1.3
203.433	-3.7
203.906	-9.1
204.378	-9
204.85	-3.4
205.322	-13.1
205.794	-5.6
206.266	-4.3
206.739	-11.8
207.211	2.4
207.683	-7.1
208.155	-5.6
208.627	-8.4
209.099	-7.7
209.57	-3.3
210.042	-6
210.514	-3.2
210.986	1.4
211.458	-5.2
211.93	-3.5
212.402	2.8
212.873	-10.4
213.345	-8.4
213.817	-10.3
214.288	-4.6
214.76	-17
215.232	-9.5
215.703	-0
216.175	-7.2
216.646	-5.9
217.118	-9.3
217.589	-4.9
218.061	-5.7
218.532	-2.9
219.004	-0.5
219.475	-7.5
219.946	-2.8
220.418	-10.3
220.889	1.4
221.36	-1.2
221.832	-9.2
222.303	-7.4
222.774	-2.3
223.245	-11.6
223.717	-9.1
224.188	-6.9
224.659	-12.8
225.13	-8.5
225.601	-8.8
226.072	1.3
226.543	-4.6
227.014	-2.3
227.485	-8
227.956	-1.8
228.427	-3
228.898	0.9
229.369	-1.8
229.839	-1.6
230.31	-3.8
230.781	1.9
231.252	-0
231.722	-1.5
232.193	-0.5
232.664	1.1
233.135	3.3
233.605	2.3
234.076	-8.7
234.546	-2.3
235.017	3.7
235.487	2.6
235.958	-5.1
236.428	-0.1
236.899	2.6
237.369	1.7
237.84	-3.9
238.31	7.9
238.78	3.3
239.251	-2.4
239.721	-0
240.191	3.2
240.662	-0.1
241.132	2.7
241.602	-1
242.072	-1.9
242.542	0.8
243.013	-2.5
243.483	-0.7
243.953	-3.3
244.423	-0.5
244.893	-1.5
245.363	6.3
245.833	-3.7
246.303	-0.2
246.773	5.8
247.243	7.7
247.712	6.7
248.182	7
248.652	5.2
249.122	-0
249.592	10.5
250.061	20.5
250.531	31.6
251.001	17.4
251.471	21.6
251.94	16.6
252.41	9.1
252.879	-1.6
253.349	10.7
253.818	4.2
254.288	7.8
254.757	5
255.227	2
255.696	4.6
256.166	5
256.635	2.9
257.105	8.4
257.574	6.1
258.043	3.3
258.513	8.3
258.982	9.5
259.451	4.8
259.92	10.9
260.389	12.4
260.859	17.9
261.328	2.9
261.797	12.6
262.266	12.2
262.735	11.8
263.204	3.5
263.673	1.6
264.142	3.6
264.611	-5.4
265.08	-0.2
265.549	2.5
266.018	7.8
266.487	-4.8
266.955	-0.2
267.424	4.5
267.893	-0.8
268.362	-1.9
268.83	-6.9
269.299	13.5
269.768	3.9
270.236	10.2
270.705	-3.7
271.174	4.6
271.642	2.6
272.111	9.4
272.579	18.4
273.048	20.9
273.516	21.3
273.985	22.8
274.453	23.3
274.922	19.5
275.39	14.1
275.858	2.4
276.327	9.3
276.795	21.8
277.263	8.2
277.731	27.2
278.2	48.3
278.668	47.4
279.136	43.9
279.604	14.6
280.072	18.4
280.54	9.3
281.008	13.4
281.477	10.4
281.945	10.3
282.413	10.1
282.881	13.6
283.348	1.7
283.816	8.6
284.284	11.6
284.752	17.8
285.22	17.5
285.688	11.8
286.156	17.3
286.623	41.8
287.091	47
287.559	21.9
288.026	14.6
288.494	5.5
288.962	2.8
289.429	10.4
289.897	11.9
290.364	12.8
290.832	9
291.3	13.2
291.767	11.4
292.234	19.6
292.702	9.6
293.169	13
293.637	17.4
294.104	16.8
294.571	7.3
295.039	13.4
295.506	16.7
295.973	15.7
296.44	17
296.908	16.1
297.375	16.9
297.842	17.7
298.309	14.2
298.776	4.7
299.243	15.5
299.71	8.1
300.177	17.9
300.644	21
301.111	14.4
301.578	19.1
302.045	14.8
302.512	17.7
302.979	21
303.446	21.6
303.913	12.4
304.379	11.1
304.846	24
305.313	20.6
305.78	21
306.246	22.1
306.713	22.2
307.18	29.8
307.646	18.9
308.113	25
308.579	15.9
309.046	18.5
309.512	24
309.979	15.6
310.445	24.6
310.912	31.1
311.378	23.5
311.845	23.1
312.311	26.6
312.777	24.9
313.244	28.3
313.71	31.5
314.176	23
314.642	22.9
315.109	28.1
315.575	34.2
316.041	34.8
316.507	31.2
316.973	31.3
317.439	30.2
317.905	27.7
318.371	30.4
318.837	35
319.303	31.7
319.769	30.9
320.235	29.6
320.701	30.4
321.167	32.2
321.633	29.5
322.099	31.1
322.564	39.8
323.03	32.3
323.496	29.7
323.962	36.8
324.427	28.7
324.893	41.8
325.359	29.8
325.824	33.3
326.29	36.9
326.755	32.5
327.221	32.6
327.686	40
328.152	41.6
328.617	34.5
329.083	39.6
329.548	42.5
330.014	40.5
330.479	34.3
330.944	38.7
331.41	34.6
331.875	40.6
332.34	37
332.805	38.8
333.271	39.1
333.736	33.1
334.201	50.3
334.666	41.6
335.131	45.1
335.596	45.3
336.061	40
336.526	39.3
336.991	41
337.456	49.4
337.921	42.7
338.386	39
338.851	36.7
339.316	47
339.781	37.7
340.246	42.9
340.711	41.9
341.175	43.8
341.64	39.8
342.105	41.6
342.569	44.2
343.034	46.2
343.499	47.1
343.963	39.5
344.428	56
344.893	54.1
345.357	50
345.822	54
346.286	53.3
346.751	59.7
347.215	61.5
347.679	63.5
348.144	82.8
348.608	73.1
349.073	56.7
349.537	65
350.001	69.5
350.465	81.1
350.93	74.4
351.394	69.1
351.858	65.8
352.322	77.5
352.786	67.8
353.25	82.4
353.715	98.3
354.179	87.8
354.643	108.4
355.107	102.4
355.571	82.9
356.035	86.4
356.498	98.1
356.962	101.7
357.426	111.7
357.89	100.2
358.354	78.2
358.818	74
359.281	74.7
359.745	74.1
360.209	72.7
360.673	64.4
361.136	71.2
361.6	70.1
362.064	71.9
362.527	70.9
362.991	78.3
363.454	72.8
363.918	60.5
364.381	67.4
364.845	68.2
365.308	74.7
365.772	77.9
366.235	76.6
366.698	70.4
367.162	81.7
367.625	79.7
368.088	77.4
368.552	80
369.015	76.3
369.478	82.5
369.941	87.3
370.404	74.5
370.867	92.6
371.331	91.4
371.794	98.4
372.257	101
372.72	101.3
373.183	99.3
373.646	93.6
374.109	93.2
374.572	96.9
375.035	92.4
375.497	96.9
375.96	91
376.423	88.8
376.886	99.7
377.349	93.2
377.811	91.9
378.274	94.7
378.737	103.7
379.199	96.5
379.662	98.7
380.125	102.5
380.587	103.5
381.05	107.6
381.512	113.8
381.975	121.3
382.437	117.1
382.9	113
383.362	109.5
383.825	113
384.287	128.7
384.75	119.4
385.212	123
385.674	120
386.136	118.5
386.599	108
387.061	114
387.523	116.5
387.985	122.6
388.447	133.7
388.91	126.7
389.372	135.9
389.834	132.2
390.296	134.3
390.758	131.4
391.22	153.6
391.682	187.7
392.144	253.9
392.606	205.5
393.068	153.1
393.529	143.2
393.991	134.1
394.453	135.7
394.915	136.1
395.377	168.7
395.838	196.7
396.3	141
396.762	124
397.224	117.7
397.685	120.9
398.147	114.7
398.608	111.3
399.07	108.5
399.531	121.2
399.993	125.9
400.454	128.9
400.916	124.2
401.377	130.1
401.839	129.3
402.3	130
402.762	148.5
403.223	160.4
403.684	151.2
404.145	145.6
404.607	145.6
405.068	144.6
405.529	146.1
405.99	161.5
406.451	149.7
406.913	154.7
407.374	141.5
407.835	140.5
408.296	146.1
408.757	154.7
409.218	165.3
409.679	163.6
410.14	160.6
410.601	154.6
411.062	167.6
411.522	171.9
411.983	177.4
412.444	160.9
412.905	163.1
413.366	160.9
413.826	173.3
414.287	193.3
414.748	237.3
415.208	227.6
415.669	182.6
416.13	179.8
416.59	179.5
417.051	192.9
417.511	194.2
417.972	209.1
418.432	229.9
418.893	261.3
419.353	235.6
419.814	182.2
420.274	162
420.734	158.6
421.195	182.9
421.655	169.5
422.115	171
422.576	174.3
423.036	175.5
423.496	180.7
423.956	193.6
424.416	210.5
424.876	239.4
425.336	231.9
425.797	238
426.257	233.6
426.717	210.8
427.177	206.3
427.637	196.7
428.097	204.9
428.556	224.4
429.016	239
429.476	229.1
429.936	243.9
430.396	241.3
430.856	254.9
431.315	276.6
431.775	311.2
432.235	341.1
432.694	313.2
433.154	309.1
433.614	328.8
434.073	298.2
434.533	250.5
434.993	239.7
435.452	248.8
435.912	253
436.371	251.1
436.83	245.4
437.29	233.7
437.749	219.9
438.209	217.1
438.668	242.6
439.127	236.8
439.587	234.2
440.046	217.2
440.505	232.6
440.964	237.8
441.424	272.8
441.883	264
442.342	225.4
442.801	204.1
443.26	192.9
443.719	194
444.178	192.9
444.637	184.5
445.096	199.5
445.555	200.9
446.014	201.6
446.473	202.7
446.932	205
447.391	197.3
447.849	205.5
448.308	188.2
448.767	194.3
449.226	212
449.685	213
450.143	219.2
450.602	215
451.061	203.7
451.519	207.2
451.978	210.1
452.436	206.6
452.895	216
453.353	223.5
453.812	210.9
454.27	215
454.729	211
455.187	217.4
455.646	216
456.104	220
456.562	225.2
457.021	234
457.479	229
457.937	242.5
458.395	231.6
458.854	219.7
459.312	216.1
459.77	234.6
460.228	221.9
460.686	217.7
461.144	224.6
461.602	215.4
462.06	222.2
462.518	228.3
462.976	230.7
463.434	234.7
463.892	238.2
464.35	242.9
464.808	252
465.266	233.7
465.724	247.4
466.181	241.8
466.639	241.5
467.097	255.4
467.555	266.9
468.012	260.7
468.47	274.4
468.928	288.8
469.385	300.4
469.843	306.9
470.3	311.3
470.758	321.1
471.215	333.8
471.673	352.1
472.13	346.7
472.588	355.6
473.045	327.1
473.503	336.8
473.96	350.5
474.417	361.3
474.875	378
475.332	412.3
475.789	411.8
476.246	414.6
476.704	440.7
477.161	452.5
477.618	463.2
478.075	498.6
478.532	539.2
478.989	603.2
479.446	695.1
479.903	671.8
480.36	713.1
480.817	778.8
481.274	858.8
481.731	951.3
482.188	1036.2
482.645	1171.5
483.102	1262.1
483.558	1377.2
484.015	1447.9
484.472	1419
484.929	1373.5
485.385	1324.2
485.842	1288.8
486.299	1220.1
486.755	1151.4
487.212	973.9
487.668	829.6
488.125	762.9
488.582	699.8
489.038	673.7
489.494	645.5
489.951	607
490.407	594.5
490.864	581.3
491.32	564.8
491.776	575
492.233	572.1
492.689	541.4
493.145	541.2
493.602	531
494.058	540.9
494.514	535.7
494.97	563
495.426	563.1
495.882	545.7
496.338	541.5
496.794	557.5
497.251	557.2
497.707	557.2
498.163	562.4
498.618	567.8
499.074	568.2
499.53	585.7
499.986	579.4
500.442	573.6
500.898	560.4
501.354	565.9
501.809	562
502.265	578.7
502.721	581.1
503.177	591.3
503.632	599.4
504.088	599.8
504.543	629.2
504.999	626.2
505.455	587.4
505.91	555.6
506.366	563.4
506.821	560.6
507.277	554.1
507.732	550.9
508.187	557.1
508.643	562.6
509.098	561.5
509.553	588.5
510.009	586.5
510.464	593.6
510.919	608.3
511.375	617.7
511.83	632.4
512.285	638.3
512.74	664.2
513.195	683.4
513.65	670.6
514.105	667.1
514.56	686.3
515.015	696.3
515.47	719.3
515.925	695.1
516.38	698
516.835	708.5
517.29	702
517.745	689.7
518.2	683.1
518.655	654.4
519.109	658.2
519.564	663.4
520.019	652.8
520.474	643.4
520.928	645.5
521.383	633.3
521.838	624.1
522.292	623.7
522.747	631.9
523.201	621.1
523.656	608.5
524.11	609.8
524.565	613.1
525.019	599.9
525.474	613.6
525.928	611.9
526.382	617
526.837	604
527.291	621.2
527.745	608.8
528.2	608.3
528.654	616.9
529.108	595.5
529.562	607.8
530.016	603.3
530.47	605.4
530.925	604.6
531.379	608.7
531.833	615.9
532.287	610.9
532.741	621.8
533.195	613.6
533.649	623.4
534.103	633.2
534.556	619.4
535.01	626.6
535.464	618.3
535.918	627.2
536.372	628.6
536.826	630.3
537.279	615.3
537.733	622.4
538.187	623.3
538.64	621.3
539.094	624
539.548	626.3
540.001	630.2
540.455	617.5
540.908	644.6
541.362	641.8
541.815	656.3
542.269	671.6
542.722	659.8
543.175	673.2
543.629	671.2
544.082	687.3
544.536	689.5
544.989	680.5
545.442	689.9
545.895	683.3
546.349	688.2
546.802	680.4
547.255	685.5
547.708	702.2
548.161	703.7
548.614	706.8
549.067	715.1
549.52	711
549.973	705.2
550.426	702.2
550.879	678.6
551.332	688.7
551.785	699.9
552.238	694.4
552.691	699.3
553.144	710.2
553.596	720.3
554.049	745.9
554.502	769.2
554.955	784.9
555.407	786.3
555.86	771.7
556.313	765.6
556.765	762.7
557.218	755.4
557.67	761.6
558.123	745.2
558.576	747.5
559.028	754.8
559.48	756.5
559.933	753.5
560.385	715.8
560.838	702.6
561.29	674.5
561.742	668.6
562.195	656.3
562.647	653.6
563.099	658.7
563.551	659.8
564.004	674
564.456	659.8
564.908	647.5
565.36	634.4
565.812	632.7
566.264	613.3
566.716	616.1
567.168	609.6
567.62	620.2
568.072	602
568.524	595.6
568.976	582.4
569.428	567.9
569.88	565.2
570.332	578.3
570.784	571.1
571.235	577
571.687	588.6
572.139	595.3
572.59	596.7
573.042	603.3
573.494	590.4
573.945	595.5
574.397	577.4
574.849	580.3
575.3	582
575.752	579.2
576.203	567.2
576.655	573.4
577.106	564.1
577.557	559.8
578.009	558.7
578.46	556.3
578.912	548.5
579.363	556.7
579.814	563.9
580.265	558
580.717	569.4
581.168	561.4
581.619	560.9
582.07	566
582.521	560
582.972	561.2
583.423	563.6
583.875	557.8
584.326	585.8
584.777	619.8
585.227	689
585.678	762.3
586.129	850
586.58	913
587.031	986.8
587.482	1133.1
587.933	1280.7
588.384	1115.6
588.834	826.4
589.285	669.5
589.736	651.2
590.186	641.4
590.637	636.6
591.088	614.6
591.538	628.4
591.989	608.8
592.439	601.5
592.89	596.4
593.34	590.5
593.791	583
594.241	582.9
594.692	583.6
595.142	577.9
595.593	572.3
596.043	574.9
596.493	588.3
596.943	589.1
597.394	594.3
597.844	579.3
598.294	597.5
598.744	620.5
599.195	647.2
599.645	666.4
600.095	707
600.545	745.3
600.995	784.2
601.445	844
601.895	888.5
602.345	957.2
602.795	925.9
603.245	887.9
603.695	842.9
604.145	795.6
604.594	749.2
605.044	705.5
605.494	657.8
605.944	617.3
606.393	611.6
606.843	598
607.293	610.5
607.743	601.1
608.192	610.7
608.642	619.4
609.091	617
609.541	626.1
609.99	626
610.44	618.2
610.889	585.7
611.339	564
611.788	562.1
612.238	582.4
612.687	581.3
613.136	592.5
613.586	608.8
614.035	602
614.484	615.2
614.933	610.5
615.383	608.5
615.832	598.7
616.281	589.9
616.73	550.1
617.179	542.3
617.628	525.7
618.077	524.4
618.526	510.8
618.975	508.5
619.424	495.6
619.873	503.6
620.322	502.4
620.771	490.9
621.22	489.2
621.669	485.5
622.118	477.2
622.567	463.1
623.015	463.1
623.464	468.4
623.913	454.5
624.361	443
624.81	439.3
625.259	440.1
625.707	450.7
626.156	444.9
626.604	460.8
627.053	451.6
627.501	454.6
627.95	461.9
628.398	463.4
628.847	457.9
629.295	456.8
629.744	463
630.192	458.2
630.64	455.3
631.089	446.3
631.537	463
631.985	464.6
632.433	475.8
632.881	482.8
633.33	517
633.778	507
634.226	455
634.674	459.7
635.122	461.2
635.57	486.2
636.018	499.4
636.466	471.5
636.914	442
637.362	457.2
637.81	467.1
638.258	465.2
638.705	464.5
639.153	484.6
639.601	488.6
640.049	506
640.497	527.1
640.944	558.5
641.392	517.1
641.84	483.2
642.287	463
642.735	449.3
643.182	464.4
643.63	461
644.078	452.2
644.525	473.8
644.973	477.2
645.42	483.6
645.867	496.3
646.315	500.6
646.762	515.4
647.21	548
647.657	564.9
648.104	592.5
648.551	612.8
648.999	660.5
649.446	719.1
649.893	792.9
650.34	911.8
650.787	1095.4
651.234	1339.3
651.682	1747.9
652.129	2404.8
652.576	3459.6
653.023	5114
653.47	7110.5
653.917	8986.1
654.363	10567.1
654.81	11902.3
655.257	11317.1
655.704	7366.4
656.151	4293.9
656.598	2774.3
657.044	1967
657.491	1503.3
657.938	1190.3
658.385	993.3
658.831	871
659.278	771.5
659.724	679
660.171	632.1
660.618	575.3
661.064	545.4
661.511	526.8
661.957	513
662.404	494.6
662.85	497.2
663.296	480.3
663.743	445
664.189	420.1
664.635	417.2
665.082	415.9
665.528	423.7
665.974	405.2
666.42	404.1
666.867	394
667.313	380.8
667.759	375.6
668.205	377.8
668.651	390.9
669.097	384.2
669.543	402.2
669.989	375.5
670.435	351
670.881	347.6
671.327	350.2
671.773	368.2
672.219	381.3
672.665	430.2
673.11	460.1
673.556	498.6
674.002	530.1
674.448	517.8
674.893	431.1
675.339	371.8
675.785	348.6
676.23	321.4
676.676	301.7
677.122	296.1
677.567	294.2
678.013	281.8
678.458	277.1
678.904	274.6
679.349	268.1
679.794	271.3
680.24	268.4
680.685	274.7
681.131	275.2
681.576	270.6
682.021	277.2
682.466	276.8
682.912	267
683.357	270.3
683.802	293.5
684.247	321.2
684.692	358.5
685.137	377.1
685.583	418.4
686.028	441.7
686.473	398.8
686.918	348
687.363	322.1
687.807	302.1
688.252	280.9
688.697	274.9
689.142	256.6
689.587	258.2
690.032	245.6
690.477	264.7
690.921	267.3
691.366	294.3
691.811	310.8
692.255	333.5
692.7	366.6
693.145	388.8
693.589	518.9
694.034	859.3
694.478	1195.3
694.923	1386.9
695.367	1838.9
695.812	957.2
696.256	388.2
696.701	286.8
697.145	259.5
697.59	248.2
698.034	250.3
698.478	258.1
698.922	259.9
699.367	256.5
699.811	261.9
700.255	266.3
700.699	301.7
701.143	333.8
701.588	371.6
702.032	411
702.476	410.8
702.92	374.2
703.364	386.1
703.808	476.8
704.252	782
704.696	1117.8
705.14	1320.5
705.584	1729.9
706.027	844.7
706.471	413.1
706.915	300.7
707.359	266.6
707.803	248.1
708.246	243.3
708.69	244.1
709.134	238.8
709.577	232.9
710.021	245
710.465	237.2
710.908	230.2
711.352	228
711.795	245.6
712.239	269.6
712.682	293.2
713.126	317.6
713.569	367.8
714.012	285.5
714.456	254.4
714.899	237.3
715.342	213.3
715.786	200.6
716.229	197.4
716.672	196.8
717.115	191.9
717.558	194.9
718.002	186.5
718.445	197.9
718.888	223.9
719.331	232.7
719.774	233.3
720.217	233.9
720.66	220.3
721.103	203.2
721.546	199.2
721.989	191.8
722.432	178.8
722.874	183.9
723.317	177.5
723.76	182.5
724.203	200.6
724.645	235.5
725.088	329.4
725.531	446.3
725.974	500.9
726.416	436.3
726.859	237.6
727.301	196.3
727.744	182.8
728.187	179.3
728.629	186.3
729.071	182.6
729.514	197
729.956	210.2
730.399	221.5
730.841	221.3
731.283	211.3
731.726	201.9
732.168	198.7
732.61	202.8
733.053	219.3
733.495	243.4
733.937	266.7
734.379	308.4
734.821	329.3
735.263	415.7
735.705	636.3
736.148	1185.7
736.59	1983.6
737.032	2462.8
737.474	2008.8
737.916	629.2
738.357	326.3
738.799	246.3
739.241	227.6
739.683	215.2
740.125	227.6
740.567	225.2
741.008	245.4
741.45	245
741.892	242.1
742.334	272.1
742.775	283.1
743.217	264.8
743.658	202.1
744.1	196.6
744.542	199.6
744.983	235.7
745.425	274.2
745.866	272.3
746.307	226.6
746.749	213.2
747.19	247.3
747.632	347.4
748.073	648.6
748.514	1402.6
748.956	2242.6
749.397	2799.7
749.838	2326
750.279	2407.4
750.72	1201.5
751.162	433.1
751.603	247.6
752.044	187.9
752.485	159.7
752.926	162.1
753.367	154.2
753.808	152.8
754.249	148.3
754.69	143.3
755.131	137.7
755.572	139.4
756.013	141.4
756.453	135.6
756.894	143.1
757.335	140.6
757.776	150.9
758.216	150.1
758.657	149.3
759.098	149.9
759.538	174.9
759.979	201.3
760.42	277.3
760.86	521.2
761.301	1352.5
761.741	3430.4
762.182	5294.6
762.622	3745.1
763.063	1048
763.503	419.7
763.943	273.2
764.384	260
764.824	324.5
765.264	359.9
765.705	243.5
766.145	161.9
766.585	140.6
767.025	142.6
767.465	143.9
767.906	184
768.346	250.3
768.786	271.8
769.226	200.9
769.666	238
770.106	454.5
770.546	1162.2
770.986	2109.7
771.426	1925.1
771.866	627.2
772.306	246.6
772.745	160.9
773.185	134
773.625	130.2
774.065	126.1
774.505	155.1
774.944	236
775.384	514.7
775.824	980.4
776.263	981.9
776.703	407.3
777.142	172.6
777.582	126.9
778.021	109
778.461	102.3
778.9	108.4
779.34	100.7
779.779	86.3
780.219	77.1
780.658	82.4
781.097	79.9
781.537	91.5
781.976	85.5
782.415	79
782.855	84.1
783.294	78.9
783.733	80.5
784.172	80.4
784.611	75.6
785.05	79.8
785.489	84.6
785.928	88.6
786.367	95
786.806	81.6
787.245	103
787.684	103.3
788.123	113.1
788.562	99
789.001	97.8
789.44	95.1
789.879	87.6
790.317	99.1
790.756	100.8
791.195	92.4
791.634	113.5
792.072	157.4
792.511	266.5
792.95	742.9
793.388	1705.5
793.827	1600.4
794.265	537.4
794.704	217
795.142	148
795.581	119.3
796.019	105.3
796.458	103.8
796.896	96.2
797.334	101.4
797.773	114.2
798.211	166.9
798.649	324.5
799.087	780.7
799.526	1244.3
799.964	1571.5
800.402	1652.8
800.84	603.8
801.278	231.5
801.716	142.5
802.154	115.8
802.592	111.1
803.03	106.7
803.468	105.4
803.906	113.1
804.344	114
804.782	114.6
805.22	107.3
805.658	96.9
806.096	116.6
806.533	123.2
806.971	132.1
807.409	161.6
807.847	232.7
808.284	496
808.722	1421.1
809.16	2633.4
