Data from 20171114-ORNL-Ar_H_NY_Subt18_08-03-57-967.txt Node
Date: Tue Nov 14 08:03:57 EST 2017
User: Ender
Spectrometer: HR+D1039
Trigger mode: 0
Integration Time (sec): 2.730000E-2
Scans to average: 10
Electric dark correction enabled: true
Nonlinearity correction enabled: false
Boxcar width: 0
XAxis mode: Wavelengths
Number of Pixels in Spectrum: 2048
>>>>>Begin Spectral Data<<<<<
187.836	-10.06
188.309	-10.06
188.782	-10.06
189.255	-2.16
189.728	-0.96
190.201	4.04
190.674	5.24
191.147	4.54
191.619	-8.26
192.092	3.64
192.565	6.14
193.038	7.04
193.511	-3.16
193.984	-2.76
194.456	0.24
194.929	-1.16
195.402	-2.86
195.874	0.54
196.347	-1.26
196.82	-6.26
197.292	6.24
197.765	-2.66
198.237	-8.16
198.71	3.34
199.182	-0.86
199.655	2.04
200.127	2.74
200.6	-5.26
201.072	0.14
201.544	-1.46
202.017	-2.66
202.489	6.14
202.961	-1.86
203.433	-1.66
203.906	-0.16
204.378	-4.26
204.85	-0.76
205.322	-6.76
205.794	2.94
206.266	-0.56
206.739	-10.66
207.211	8.24
207.683	-7.96
208.155	-10.56
208.627	-8.56
209.099	1.44
209.57	-5.46
210.042	0.44
210.514	2.04
210.986	-2.26
211.458	1.04
211.93	3.94
212.402	5.04
212.873	-4.86
213.345	-7.56
213.817	-6.76
214.288	0.44
214.76	-9.26
215.232	-2.96
215.703	-7.06
216.175	-3.66
216.646	-1.06
217.118	-6.96
217.589	-0.46
218.061	-3.56
218.532	-0.46
219.004	1.84
219.475	-5.66
219.946	-3.06
220.418	-7.66
220.889	4.64
221.36	-0.66
221.832	-5.66
222.303	-7.16
222.774	2.94
223.245	-9.66
223.717	-4.06
224.188	1.54
224.659	-10.06
225.13	-4.16
225.601	-1.56
226.072	2.24
226.543	5.74
227.014	1.84
227.485	-1.76
227.956	-1.96
228.427	2.14
228.898	-1.06
229.369	4.64
229.839	-7.46
230.31	-3.26
230.781	2.64
231.252	-2.36
231.722	-6.36
232.193	-0.06
232.664	-4.76
233.135	-8.76
233.605	0.24
234.076	-6.86
234.546	4.44
235.017	3.64
235.487	3.64
235.958	-5.56
236.428	-3.76
236.899	-2.26
237.369	-2.96
237.84	-6.66
238.31	1.94
238.78	-4.36
239.251	-5.56
239.721	-5.96
240.191	-7.56
240.662	0.34
241.132	-6.46
241.602	-6.76
242.072	-1.56
242.542	3.34
243.013	-4.56
243.483	-3.96
243.953	-0.66
244.423	2.34
244.893	0.14
245.363	-1.96
245.833	2.24
246.303	1.94
246.773	2.64
247.243	-3.36
247.712	-4.16
248.182	3.34
248.652	6.34
249.122	-5.86
249.592	-0.26
250.061	6.34
250.531	8.64
251.001	-10.46
251.471	2.74
251.94	11.34
252.41	0.44
252.879	-1.76
253.349	13.74
253.818	5.24
254.288	-2.16
254.757	-3.56
255.227	-2.06
255.696	-4.86
256.166	3.54
256.635	0.04
257.105	1.24
257.574	3.14
258.043	4.84
258.513	-3.86
258.982	2.44
259.451	-4.96
259.92	-0.26
260.389	3.14
260.859	8.04
261.328	-0.76
261.797	4.14
262.266	0.24
262.735	17.54
263.204	-0.06
263.673	0.34
264.142	5.24
264.611	-9.26
265.08	-1.76
265.549	-8.16
266.018	3.44
266.487	-2.86
266.955	-1.76
267.424	-3.46
267.893	6.34
268.362	3.44
268.83	-0.46
269.299	14.64
269.768	-0.86
270.236	7.94
270.705	-3.56
271.174	-1.76
271.642	2.34
272.111	4.04
272.579	6.54
273.048	2.34
273.516	1.94
273.985	4.94
274.453	8.74
274.922	10.94
275.39	12.24
275.858	0.14
276.327	9.34
276.795	9.44
277.263	1.24
277.731	11.44
278.2	6.74
278.668	2.14
279.136	11.04
279.604	4.34
280.072	-2.86
280.54	8.44
281.008	5.24
281.477	5.44
281.945	9.84
282.413	8.44
282.881	12.14
283.348	6.04
283.816	10.84
284.284	11.14
284.752	20.14
285.22	8.34
285.688	7.14
286.156	7.14
286.623	12.94
287.091	5.74
287.559	6.14
288.026	8.84
288.494	12.44
288.962	-3.26
289.429	6.14
289.897	15.74
290.364	9.44
290.832	9.64
291.3	11.34
291.767	8.74
292.234	14.54
292.702	4.94
293.169	12.84
293.637	17.34
294.104	12.74
294.571	7.84
295.039	7.94
295.506	9.34
295.973	8.74
296.44	11.24
296.908	14.64
297.375	16.94
297.842	6.14
298.309	11.24
298.776	5.94
299.243	17.94
299.71	9.84
300.177	13.34
300.644	20.74
301.111	15.74
301.578	19.14
302.045	12.04
302.512	16.64
302.979	17.34
303.446	17.04
303.913	13.74
304.379	16.84
304.846	22.24
305.313	22.74
305.78	16.54
306.246	20.04
306.713	22.24
307.18	14.14
307.646	19.44
308.113	16.54
308.579	19.14
309.046	17.14
309.512	22.44
309.979	12.94
310.445	22.64
310.912	24.44
311.378	28.14
311.845	23.34
312.311	23.94
312.777	23.54
313.244	29.84
313.71	27.14
314.176	22.44
314.642	20.84
315.109	22.94
315.575	27.04
316.041	28.84
316.507	18.54
316.973	23.14
317.439	22.54
317.905	24.74
318.371	29.04
318.837	22.04
319.303	31.24
319.769	28.34
320.235	26.44
320.701	25.34
321.167	27.34
321.633	26.54
322.099	23.24
322.564	31.84
323.03	23.64
323.496	26.04
323.962	29.04
324.427	19.94
324.893	37.14
325.359	25.14
325.824	31.24
326.29	23.24
326.755	28.84
327.221	32.34
327.686	30.94
328.152	35.34
328.617	31.04
329.083	40.04
329.548	44.34
330.014	36.44
330.479	28.84
330.944	36.54
331.41	33.24
331.875	42.34
332.34	35.44
332.805	38.04
333.271	35.24
333.736	32.64
334.201	40.94
334.666	40.14
335.131	39.74
335.596	39.04
336.061	40.24
336.526	33.54
336.991	42.24
337.456	49.34
337.921	38.54
338.386	35.24
338.851	41.54
339.316	43.34
339.781	36.24
340.246	50.64
340.711	38.84
341.175	51.64
341.64	37.14
342.105	40.44
342.569	45.14
343.034	50.24
343.499	46.74
343.963	42.24
344.428	56.84
344.893	46.94
345.357	50.54
345.822	51.54
346.286	54.84
346.751	59.84
347.215	50.44
347.679	60.84
348.144	68.44
348.608	63.04
349.073	52.74
349.537	63.64
350.001	62.24
350.465	79.14
350.93	66.74
351.394	77.24
351.858	58.54
352.322	72.94
352.786	62.14
353.25	76.54
353.715	84.64
354.179	81.44
354.643	98.74
355.107	94.44
355.571	87.64
356.035	85.64
356.498	92.74
356.962	84.84
357.426	91.24
357.89	83.04
358.354	75.14
358.818	74.04
359.281	69.34
359.745	62.84
360.209	64.24
360.673	65.24
361.136	74.24
361.6	75.84
362.064	79.14
362.527	74.94
362.991	79.74
363.454	66.14
363.918	68.64
364.381	64.94
364.845	77.44
365.308	81.14
365.772	72.04
366.235	83.04
366.698	77.14
367.162	74.64
367.625	75.44
368.088	80.54
368.552	79.74
369.015	75.54
369.478	88.04
369.941	89.14
370.404	87.44
370.867	89.04
371.331	91.64
371.794	97.24
372.257	86.44
372.72	99.54
373.183	91.64
373.646	81.14
374.109	88.34
374.572	97.14
375.035	84.54
375.497	94.44
375.96	93.44
376.423	91.44
376.886	100.54
377.349	101.94
377.811	91.64
378.274	95.74
378.737	97.74
379.199	92.64
379.662	100.64
380.125	103.24
380.587	99.44
381.05	99.44
381.512	102.34
381.975	113.94
382.437	113.04
382.9	111.54
383.362	117.54
383.825	118.74
384.287	114.54
384.75	109.44
385.212	117.84
385.674	122.34
386.136	126.84
386.599	112.44
387.061	121.44
387.523	103.34
387.985	118.14
388.447	131.94
388.91	117.84
389.372	113.44
389.834	118.84
390.296	117.74
390.758	119.04
391.22	121.24
391.682	135.34
392.144	134.04
392.606	125.44
393.068	129.54
393.529	139.04
393.991	138.14
394.453	118.74
394.915	128.44
395.377	128.04
395.838	128.04
396.3	129.14
396.762	129.64
397.224	129.24
397.685	126.94
398.147	124.84
398.608	125.04
399.07	126.34
399.531	127.74
399.993	136.14
400.454	151.94
400.916	138.94
401.377	140.74
401.839	141.44
402.3	143.34
402.762	156.24
403.223	163.74
403.684	161.84
404.145	154.84
404.607	155.44
405.068	148.84
405.529	162.34
405.99	162.34
406.451	164.74
406.913	162.24
407.374	159.54
407.835	151.24
408.296	160.54
408.757	166.74
409.218	167.54
409.679	171.34
410.14	169.34
410.601	176.94
411.062	169.34
411.522	167.44
411.983	172.84
412.444	166.24
412.905	177.84
413.366	182.84
413.826	193.74
414.287	218.64
414.748	256.94
415.208	241.84
415.669	215.54
416.13	205.04
416.59	198.14
417.051	213.74
417.511	219.94
417.972	236.14
418.432	251.24
418.893	294.24
419.353	252.04
419.814	198.34
420.274	177.14
420.734	173.04
421.195	188.74
421.655	180.54
422.115	184.04
422.576	191.04
423.036	193.34
423.496	200.24
423.956	211.94
424.416	223.94
424.876	263.24
425.336	253.34
425.797	250.04
426.257	246.34
426.717	226.14
427.177	221.24
427.637	209.64
428.097	221.84
428.556	229.84
429.016	252.84
429.476	248.64
429.936	255.04
430.396	252.24
430.856	264.94
431.315	291.24
431.775	313.84
432.235	348.64
432.694	318.44
433.154	320.84
433.614	334.14
434.073	304.84
434.533	261.24
434.993	254.04
435.452	258.74
435.912	262.84
436.371	257.14
436.83	246.64
437.29	241.74
437.749	230.24
438.209	233.14
438.668	245.54
439.127	253.84
439.587	239.64
440.046	222.84
440.505	235.04
440.964	253.44
441.424	281.94
441.883	266.34
442.342	245.74
442.801	216.84
443.26	209.94
443.719	219.54
444.178	212.44
444.637	203.64
445.096	216.34
445.555	219.24
446.014	213.74
446.473	218.04
446.932	231.04
447.391	218.04
447.849	222.14
448.308	211.44
448.767	212.14
449.226	231.14
449.685	237.04
450.143	250.44
450.602	233.24
451.061	226.84
451.519	230.14
451.978	223.24
452.436	224.44
452.895	232.14
453.353	231.84
453.812	223.54
454.27	232.64
454.729	228.74
455.187	228.04
455.646	230.44
456.104	235.54
456.562	240.44
457.021	252.84
457.479	240.64
457.937	252.24
458.395	251.64
458.854	239.74
459.312	234.64
459.77	247.34
460.228	239.04
460.686	231.44
461.144	241.64
461.602	240.54
462.06	244.14
462.518	239.54
462.976	246.84
463.434	245.74
463.892	254.34
464.35	259.94
464.808	269.34
465.266	263.64
465.724	257.04
466.181	266.34
466.639	256.14
467.097	270.04
467.555	281.64
468.012	288.84
468.47	294.64
468.928	309.64
469.385	325.44
469.843	325.44
470.3	320.44
470.758	327.84
471.215	355.84
471.673	372.34
472.13	369.94
472.588	373.74
473.045	344.94
473.503	358.24
473.96	367.54
474.417	382.54
474.875	399.04
475.332	426.44
475.789	418.34
476.246	432.84
476.704	446.94
477.161	458.64
477.618	474.44
478.075	507.34
478.532	547.44
478.989	592.64
479.446	679.94
479.903	671.34
480.36	711.84
480.817	749.64
481.274	823.04
481.731	929.74
482.188	983.34
482.645	1096.64
483.102	1181.94
483.558	1283.54
484.015	1333.64
484.472	1305.64
484.929	1271.74
485.385	1236.04
485.842	1211.64
486.299	1163.54
486.755	1103.94
487.212	954.64
487.668	830.24
488.125	775.24
488.582	723.84
489.038	687.84
489.494	647.04
489.951	632.24
490.407	608.94
490.864	583.64
491.32	581.64
491.776	587.04
492.233	586.64
492.689	560.04
493.145	557.54
493.602	547.54
494.058	561.84
494.514	555.64
494.97	571.14
495.426	569.04
495.882	549.14
496.338	557.34
496.794	571.84
497.251	561.44
497.707	576.84
498.163	576.84
498.618	575.54
499.074	572.34
499.53	599.24
499.986	597.54
500.442	578.04
500.898	570.34
501.354	557.94
501.809	572.54
502.265	566.74
502.721	573.54
503.177	572.94
503.632	582.64
504.088	583.54
504.543	593.74
504.999	613.24
505.455	590.34
505.91	586.44
506.366	590.24
506.821	584.44
507.277	578.94
507.732	586.04
508.187	574.04
508.643	580.84
509.098	579.34
509.553	605.14
510.009	617.84
510.464	609.44
510.919	623.74
511.375	632.94
511.83	635.14
512.285	655.84
512.74	676.04
513.195	696.94
513.65	688.54
514.105	696.64
514.56	693.54
515.015	714.64
515.47	723.24
515.925	704.14
516.38	706.84
516.835	706.74
517.29	701.04
517.745	690.14
518.2	688.64
518.655	675.14
519.109	672.34
519.564	659.04
520.019	647.44
520.474	646.84
520.928	649.24
521.383	649.34
521.838	630.44
522.292	636.54
522.747	644.64
523.201	639.44
523.656	622.44
524.11	627.64
524.565	612.64
525.019	608.04
525.474	615.94
525.928	619.54
526.382	615.24
526.837	621.54
527.291	619.14
527.745	618.94
528.2	615.14
528.654	608.44
529.108	609.14
529.562	609.44
530.016	608.74
530.47	611.74
530.925	604.64
531.379	607.34
531.833	615.04
532.287	612.24
532.741	608.24
533.195	613.54
533.649	621.74
534.103	623.14
534.556	618.14
535.01	622.84
535.464	622.64
535.918	624.44
536.372	622.34
536.826	622.74
537.279	609.64
537.733	622.64
538.187	607.14
538.64	623.14
539.094	620.44
539.548	632.84
540.001	616.04
540.455	622.44
540.908	642.84
541.362	640.84
541.815	639.04
542.269	651.74
542.722	654.34
543.175	666.14
543.629	666.64
544.082	683.74
544.536	680.04
544.989	675.74
545.442	680.84
545.895	676.74
546.349	678.94
546.802	683.34
547.255	684.44
547.708	691.94
548.161	699.44
548.614	707.54
549.067	717.34
549.52	703.94
549.973	692.14
550.426	691.64
550.879	669.44
551.332	673.34
551.785	697.04
552.238	685.84
552.691	698.94
553.144	703.54
553.596	720.44
554.049	725.44
554.502	749.24
554.955	766.14
555.407	767.74
555.86	759.64
556.313	754.84
556.765	749.94
557.218	744.94
557.67	742.54
558.123	735.14
558.576	723.84
559.028	737.14
559.48	739.54
559.933	740.44
560.385	711.44
560.838	678.04
561.29	656.74
561.742	668.54
562.195	644.24
562.647	643.04
563.099	646.44
563.551	652.34
564.004	656.44
564.456	638.34
564.908	632.54
565.36	621.94
565.812	611.74
566.264	596.44
566.716	601.94
567.168	590.84
567.62	591.04
568.072	581.14
568.524	583.54
568.976	573.54
569.428	561.04
569.88	566.54
570.332	570.64
570.784	559.04
571.235	565.34
571.687	578.74
572.139	588.44
572.59	594.04
573.042	585.84
573.494	580.24
573.945	583.74
574.397	568.04
574.849	567.74
575.3	570.34
575.752	556.34
576.203	554.44
576.655	552.44
577.106	539.34
577.557	536.64
578.009	546.64
578.46	548.64
578.912	539.84
579.363	539.94
579.814	537.34
580.265	544.64
580.717	534.14
581.168	543.64
581.619	548.94
582.07	551.14
582.521	546.54
582.972	531.44
583.423	547.54
583.875	542.14
584.326	548.24
584.777	555.34
585.227	581.54
585.678	578.04
586.129	594.34
586.58	607.84
587.031	630.24
587.482	665.14
587.933	672.84
588.384	652.14
588.834	622.54
589.285	621.34
589.736	612.44
590.186	623.84
590.637	614.84
591.088	601.04
591.538	596.84
591.989	582.84
592.439	580.14
592.89	574.34
593.34	555.64
593.791	557.44
594.241	546.94
594.692	550.24
595.142	540.54
595.593	547.24
596.043	556.54
596.493	552.04
596.943	553.94
597.394	560.54
597.844	565.64
598.294	570.04
598.744	589.14
599.195	611.44
599.645	640.84
600.095	664.84
600.545	720.64
600.995	753.34
601.445	795.34
601.895	848.64
602.345	895.04
602.795	869.04
603.245	840.34
603.695	798.74
604.145	756.04
604.594	718.54
605.044	679.84
605.494	629.04
605.944	587.64
606.393	581.04
606.843	561.24
607.293	559.14
607.743	569.54
608.192	563.74
608.642	579.24
609.091	583.34
609.541	580.34
609.99	583.84
610.44	581.64
610.889	552.54
611.339	545.14
611.788	524.34
612.238	527.64
612.687	541.74
613.136	539.64
613.586	549.54
614.035	532.34
614.484	546.84
614.933	534.04
615.383	533.24
615.832	537.84
616.281	531.24
616.73	506.54
617.179	507.14
617.628	498.94
618.077	482.94
618.526	477.04
618.975	473.14
619.424	470.94
619.873	466.94
620.322	476.74
620.771	460.94
621.22	458.34
621.669	446.14
622.118	445.34
622.567	438.44
623.015	427.24
623.464	434.54
623.913	425.94
624.361	413.44
624.81	409.64
625.259	418.04
625.707	428.54
626.156	424.34
626.604	440.14
627.053	432.64
627.501	416.04
627.95	428.64
628.398	439.24
628.847	427.74
629.295	430.84
629.744	430.74
630.192	430.94
630.64	420.24
631.089	408.54
631.537	411.64
631.985	394.14
632.433	401.24
632.881	378.34
633.33	398.14
633.778	395.94
634.226	393.04
634.674	397.74
635.122	399.44
635.57	410.84
636.018	411.94
636.466	423.44
636.914	413.44
637.362	423.04
637.81	428.04
638.258	427.24
638.705	431.54
639.153	446.64
639.601	460.64
640.049	467.54
640.497	502.44
640.944	526.24
641.392	491.24
641.84	462.34
642.287	431.54
642.735	417.54
643.182	417.44
643.63	422.04
644.078	410.34
644.525	427.24
644.973	424.94
645.42	430.84
645.867	453.84
646.315	464.64
646.762	481.54
647.21	496.64
647.657	515.84
648.104	538.74
648.551	545.44
648.999	591.24
649.446	635.24
649.893	692.84
650.34	777.94
650.787	924.84
651.234	1125.44
651.682	1450.94
652.129	1948.14
652.576	2731.14
653.023	4011.64
653.47	5583.54
653.917	7015.74
654.363	8238.64
654.81	9325.34
655.257	8867.74
655.704	5828.64
656.151	3469.94
656.598	2294.04
657.044	1636.74
657.491	1261.24
657.938	1006.14
658.385	860.54
658.831	752.24
659.278	685.24
659.724	587.24
660.171	559.94
660.618	505.84
661.064	478.14
661.511	456.64
661.957	452.44
662.404	443.04
662.85	447.74
663.296	434.54
663.743	395.84
664.189	390.04
664.635	382.14
665.082	378.84
665.528	375.34
665.974	368.24
666.42	368.64
666.867	358.44
667.313	336.94
667.759	339.14
668.205	332.64
668.651	332.84
669.097	325.24
669.543	321.34
669.989	315.74
670.435	321.34
670.881	322.44
671.327	334.54
671.773	346.24
672.219	360.14
672.665	400.04
673.11	426.54
673.556	459.94
674.002	487.34
674.448	487.34
674.893	407.44
675.339	356.14
675.785	321.74
676.23	309.44
676.676	291.34
677.122	275.94
677.567	267.84
678.013	271.54
678.458	261.44
678.904	262.64
679.349	253.94
679.794	249.44
680.24	255.34
680.685	251.24
681.131	248.04
681.576	250.94
682.021	259.04
682.466	252.44
682.912	253.74
683.357	254.94
683.802	277.34
684.247	293.24
684.692	333.94
685.137	356.44
685.583	389.74
686.028	417.24
686.473	379.94
686.918	329.84
687.363	305.94
687.807	288.64
688.252	268.14
688.697	262.14
689.142	241.34
689.587	243.04
690.032	235.04
690.477	241.24
690.921	248.14
691.366	272.64
691.811	293.94
692.255	313.04
692.7	328.54
693.145	354.34
693.589	481.44
694.034	789.14
694.478	1114.64
694.923	1300.74
695.367	1739.34
695.812	901.04
696.256	375.44
696.701	271.54
697.145	253.04
697.59	239.94
698.034	226.54
698.478	242.84
698.922	234.64
699.367	232.14
699.811	232.94
700.255	249.94
700.699	273.14
701.143	303.34
701.588	335.94
702.032	372.74
702.476	372.24
702.92	356.84
703.364	361.94
703.808	453.44
704.252	723.84
704.696	1044.74
705.14	1250.14
705.584	1626.84
706.027	797.94
706.471	389.34
706.915	291.44
707.359	261.74
707.803	231.64
708.246	224.14
708.69	233.44
709.134	233.84
709.577	233.34
710.021	227.24
710.465	224.84
710.908	212.94
711.352	214.84
711.795	219.24
712.239	245.24
712.682	267.04
713.126	295.74
713.569	334.54
714.012	261.14
714.456	217.64
714.899	208.24
715.342	202.14
715.786	188.94
716.229	184.04
716.672	193.64
717.115	174.34
717.558	178.94
718.002	177.04
718.445	183.54
718.888	198.84
719.331	209.14
719.774	224.54
720.217	219.14
720.66	204.84
721.103	193.34
721.546	184.54
721.989	181.54
722.432	166.74
722.874	166.94
723.317	162.54
723.76	167.44
724.203	186.44
724.645	216.64
725.088	312.14
725.531	402.44
725.974	475.04
726.416	411.34
726.859	220.24
727.301	179.04
727.744	171.74
728.187	170.34
728.629	173.84
729.071	169.74
729.514	185.04
729.956	194.84
730.399	206.04
730.841	201.84
731.283	193.14
731.726	189.24
732.168	186.64
732.61	186.74
733.053	202.04
733.495	233.34
733.937	251.24
734.379	279.84
734.821	309.24
735.263	382.34
735.705	577.94
736.148	1102.74
736.59	1874.44
737.032	2341.94
737.474	1910.34
737.916	607.94
738.357	312.34
738.799	235.34
739.241	211.24
739.683	201.34
740.125	202.44
740.567	214.44
741.008	234.74
741.45	238.94
741.892	231.44
742.334	253.84
742.775	265.04
743.217	270.34
743.658	199.04
744.1	186.54
744.542	183.84
744.983	234.94
745.425	264.54
745.866	261.94
746.307	204.04
746.749	205.04
747.19	230.14
747.632	321.84
748.073	602.14
748.514	1307.94
748.956	2089.94
749.397	2635.54
749.838	2200.04
750.279	2255.94
750.72	1144.54
751.162	406.94
751.603	234.44
752.044	186.14
752.485	156.24
752.926	152.14
753.367	144.84
753.808	142.04
754.249	140.24
754.69	135.64
755.131	128.64
755.572	128.24
756.013	132.04
756.453	128.54
756.894	137.74
757.335	132.54
757.776	135.04
758.216	137.74
758.657	147.64
759.098	142.44
759.538	168.84
759.979	193.74
760.42	260.04
760.86	483.44
761.301	1276.14
761.741	3218.44
762.182	5058.24
762.622	3596.84
763.063	997.34
763.503	396.64
763.943	243.44
764.384	203.54
