Data from 20171114-ORNL-Ar_H_NY_Subt18_08-03-36-130.txt Node
Date: Tue Nov 14 08:03:36 EST 2017
User: Ender
Spectrometer: HR+D1039
Trigger mode: 0
Integration Time (sec): 2.730000E-2
Scans to average: 10
Electric dark correction enabled: true
Nonlinearity correction enabled: false
Boxcar width: 0
XAxis mode: Wavelengths
Number of Pixels in Spectrum: 2048
>>>>>Begin Spectral Data<<<<<
187.836	-5.35
188.309	-5.35
188.782	-5.35
189.255	4.95
189.728	-4.35
190.201	8.75
190.674	3.95
191.147	2.45
191.619	-9.75
192.092	-1.95
192.565	0.35
193.038	-1.85
193.511	1.95
193.984	2.55
194.456	5.75
194.929	0.35
195.402	-7.75
195.874	-0.05
196.347	-4.45
196.82	-7.85
197.292	9.75
197.765	3.95
198.237	-4.55
198.71	5.85
199.182	-0.05
199.655	4.35
200.127	-0.35
200.6	-0.55
201.072	-3.45
201.544	-4.95
202.017	-0.15
202.489	-2.05
202.961	-0.25
203.433	-4.45
203.906	-3.65
204.378	-4.45
204.85	0.75
205.322	-7.35
205.794	4.45
206.266	-4.15
206.739	-8.65
207.211	0.55
207.683	-2.45
208.155	-3.95
208.627	-6.25
209.099	-4.75
209.57	-10.05
210.042	-0.55
210.514	-1.55
210.986	-1.25
211.458	-3.35
211.93	-2.75
212.402	6.25
212.873	-5.95
213.345	-9.65
213.817	-3.55
214.288	-1.45
214.76	-13.75
215.232	-0.85
215.703	2.15
216.175	-6.35
216.646	-3.25
217.118	-6.95
217.589	-0.65
218.061	-4.55
218.532	-8.45
219.004	0.05
219.475	-2.55
219.946	1.55
220.418	-10.65
220.889	1.25
221.36	-0.45
221.832	-2.35
222.303	-3.95
222.774	0.25
223.245	-13.05
223.717	-7.55
224.188	-3.75
224.659	-8.45
225.13	-4.85
225.601	-3.05
226.072	6.85
226.543	2.15
227.014	7.55
227.485	3.35
227.956	-2.05
228.427	-1.65
228.898	-2.95
229.369	6.75
229.839	-7.45
230.31	-7.55
230.781	2.55
231.252	-0.45
231.722	-4.45
232.193	-8.25
232.664	-8.75
233.135	-8.15
233.605	-3.25
234.076	-2.35
234.546	-1.85
235.017	6.25
235.487	1.05
235.958	-3.55
236.428	-4.05
236.899	-6.15
237.369	-2.75
237.84	-7.15
238.31	-5.35
238.78	-1.65
239.251	-6.35
239.721	-3.65
240.191	-1.55
240.662	-5.85
241.132	-0.95
241.602	-0.15
242.072	0.45
242.542	4.45
243.013	-1.55
243.483	1.75
243.953	-0.95
244.423	-9.25
244.893	-6.85
245.363	-0.85
245.833	-1.15
246.303	-10.95
246.773	0.15
247.243	1.75
247.712	-2.95
248.182	2.45
248.652	1.25
249.122	-6.05
249.592	-3.95
250.061	2.15
250.531	5.75
251.001	-5.35
251.471	-4.35
251.94	6.65
252.41	-0.35
252.879	-5.55
253.349	8.55
253.818	3.75
254.288	-0.25
254.757	1.35
255.227	-9.05
255.696	2.15
256.166	1.95
256.635	3.85
257.105	4.85
257.574	-5.75
258.043	-0.35
258.513	-3.95
258.982	3.95
259.451	-4.65
259.92	-2.05
260.389	-8.65
260.859	6.05
261.328	-2.25
261.797	3.45
262.266	-4.35
262.735	7.55
263.204	4.35
263.673	-1.55
264.142	2.05
264.611	-9.85
265.08	-6.65
265.549	-12.95
266.018	2.35
266.487	-4.15
266.955	-8.75
267.424	-9.05
267.893	-0.35
268.362	-1.95
268.83	-3.65
269.299	8.95
269.768	2.65
270.236	-2.15
270.705	-5.45
271.174	-2.35
271.642	-3.95
272.111	-4.95
272.579	-2.35
273.048	-0.05
273.516	3.55
273.985	-4.25
274.453	2.15
274.922	9.35
275.39	0.75
275.858	-1.05
276.327	0.45
276.795	6.75
277.263	-1.45
277.731	5.35
278.2	-0.65
278.668	5.95
279.136	3.05
279.604	-5.05
280.072	4.05
280.54	2.75
281.008	-1.05
281.477	-1.95
281.945	3.55
282.413	2.75
282.881	8.65
283.348	-1.75
283.816	0.05
284.284	1.85
284.752	11.95
285.22	1.45
285.688	3.35
286.156	-0.05
286.623	3.45
287.091	-5.65
287.559	-2.15
288.026	3.25
288.494	1.55
288.962	-7.75
289.429	-4.65
289.897	9.35
290.364	6.65
290.832	5.05
291.3	6.65
291.767	5.65
292.234	5.85
292.702	-1.25
293.169	7.35
293.637	3.15
294.104	5.15
294.571	-4.75
295.039	-2.85
295.506	4.85
295.973	6.15
296.44	2.95
296.908	6.95
297.375	5.75
297.842	5.25
298.309	-0.45
298.776	-3.75
299.243	2.95
299.71	-0.25
300.177	7.75
300.644	12.25
301.111	0.15
301.578	11.25
302.045	0.25
302.512	8.85
302.979	8.35
303.446	6.15
303.913	0.15
304.379	-1.15
304.846	16.15
305.313	-1.65
305.78	1.15
306.246	8.05
306.713	12.25
307.18	6.35
307.646	4.75
308.113	10.55
308.579	3.55
309.046	9.85
309.512	7.25
309.979	1.75
310.445	12.35
310.912	15.95
311.378	5.05
311.845	11.05
312.311	18.95
312.777	15.05
313.244	14.05
313.71	15.15
314.176	12.45
314.642	7.35
315.109	9.65
315.575	17.55
316.041	18.25
316.507	7.65
316.973	13.85
317.439	13.35
317.905	9.95
318.371	12.45
318.837	11.55
319.303	11.35
319.769	8.75
320.235	6.95
320.701	12.15
321.167	21.35
321.633	11.85
322.099	17.25
322.564	17.35
323.03	12.25
323.496	14.35
323.962	14.45
324.427	9.75
324.893	18.65
325.359	14.55
325.824	14.05
326.29	9.25
326.755	22.95
327.221	14.15
327.686	14.55
328.152	18.05
328.617	13.45
329.083	25.25
329.548	21.45
330.014	24.45
330.479	12.35
330.944	13.35
331.41	18.75
331.875	25.45
332.34	15.05
332.805	15.05
333.271	16.45
333.736	16.35
334.201	25.15
334.666	22.45
335.131	25.75
335.596	21.75
336.061	25.75
336.526	9.45
336.991	20.45
337.456	23.95
337.921	22.35
338.386	19.75
338.851	19.35
339.316	24.55
339.781	21.15
340.246	33.05
340.711	20.85
341.175	20.25
341.64	18.55
342.105	22.95
342.569	28.75
343.034	27.15
343.499	23.85
343.963	26.95
344.428	35.95
344.893	28.65
345.357	26.25
345.822	32.65
346.286	30.45
346.751	33.25
347.215	30.35
347.679	32.65
348.144	42.45
348.608	36.85
349.073	30.25
349.537	33.95
350.001	36.05
350.465	44.25
350.93	30.45
351.394	43.45
351.858	31.65
352.322	42.15
352.786	44.35
353.25	42.85
353.715	53.25
354.179	45.75
354.643	55.15
355.107	53.55
355.571	52.65
356.035	45.55
356.498	51.75
356.962	52.95
357.426	54.45
357.89	55.25
358.354	45.85
358.818	45.15
359.281	42.45
359.745	34.35
360.209	37.85
360.673	33.95
361.136	43.35
361.6	46.65
362.064	40.05
362.527	43.15
362.991	52.75
363.454	43.05
363.918	37.85
364.381	41.55
364.845	45.35
365.308	43.85
365.772	46.25
366.235	42.95
366.698	43.75
367.162	42.95
367.625	45.35
368.088	43.95
368.552	48.25
369.015	49.05
369.478	50.05
369.941	59.45
370.404	51.35
370.867	48.45
371.331	56.65
371.794	58.85
372.257	41.85
372.72	55.95
373.183	58.35
373.646	48.75
374.109	50.85
374.572	57.85
375.035	54.75
375.497	57.05
375.96	57.45
376.423	53.55
376.886	57.05
377.349	58.35
377.811	55.15
378.274	57.85
378.737	54.55
379.199	60.45
379.662	56.65
380.125	61.05
380.587	56.15
381.05	56.25
381.512	64.85
381.975	70.05
382.437	62.95
382.9	67.15
383.362	70.05
383.825	69.65
384.287	74.55
384.75	64.85
385.212	67.65
385.674	74.15
386.136	74.25
386.599	69.65
387.061	77.35
387.523	76.45
387.985	76.65
388.447	75.95
388.91	74.15
389.372	72.75
389.834	73.65
390.296	72.15
390.758	75.05
391.22	77.05
391.682	83.65
392.144	91.55
392.606	79.65
393.068	86.95
393.529	95.15
393.991	81.65
394.453	85.95
394.915	82.55
395.377	81.55
395.838	79.75
396.3	85.65
396.762	80.45
397.224	84.15
397.685	71.65
398.147	89.85
398.608	72.35
399.07	77.45
399.531	84.75
399.993	87.25
400.454	95.05
400.916	89.25
401.377	92.55
401.839	88.35
402.3	87.85
402.762	101.05
403.223	109.45
403.684	99.15
404.145	95.95
404.607	87.55
405.068	97.35
405.529	89.95
405.99	100.55
406.451	92.95
406.913	100.85
407.374	98.25
407.835	95.95
408.296	97.15
408.757	95.95
409.218	100.45
409.679	104.25
410.14	99.25
410.601	100.25
411.062	101.65
411.522	114.95
411.983	109.55
412.444	103.45
412.905	112.55
413.366	110.75
413.826	125.05
414.287	145.05
414.748	183.65
415.208	170.05
415.669	148.15
416.13	142.65
416.59	137.15
417.051	153.55
417.511	155.25
417.972	172.45
418.432	172.95
418.893	216.65
419.353	182.55
419.814	142.75
420.274	128.45
420.734	120.25
421.195	126.65
421.655	121.65
422.115	128.35
422.576	124.35
423.036	131.55
423.496	132.15
423.956	149.85
424.416	150.95
424.876	171.15
425.336	162.65
425.797	166.45
426.257	160.35
426.717	137.75
427.177	138.25
427.637	119.25
428.097	135.45
428.556	134.65
429.016	145.35
429.476	137.05
429.936	142.75
430.396	136.55
430.856	153.25
431.315	151.05
431.775	163.75
432.235	191.75
432.694	169.65
433.154	172.75
433.614	183.25
434.073	167.25
434.533	138.05
434.993	130.75
435.452	142.75
435.912	140.65
436.371	147.95
436.83	147.65
437.29	156.05
437.749	142.35
438.209	136.25
438.668	156.95
439.127	159.75
439.587	152.95
440.046	138.75
440.505	155.05
440.964	158.95
441.424	176.55
441.883	174.65
442.342	163.95
442.801	143.05
443.26	143.95
443.719	145.95
444.178	144.35
444.637	139.55
445.096	139.85
445.555	144.55
446.014	152.85
446.473	151.75
446.932	150.45
447.391	147.55
447.849	160.85
448.308	148.05
448.767	146.25
449.226	159.55
449.685	161.95
450.143	171.55
450.602	152.25
451.061	149.15
451.519	155.55
451.978	149.55
452.436	147.65
452.895	148.85
453.353	160.15
453.812	151.25
454.27	156.15
454.729	152.65
455.187	151.65
455.646	157.35
456.104	158.85
456.562	160.45
457.021	166.25
457.479	158.15
457.937	167.05
458.395	171.55
458.854	161.95
459.312	164.05
459.77	168.05
460.228	159.85
460.686	156.75
461.144	163.95
461.602	154.05
462.06	153.75
462.518	167.95
462.976	155.65
463.434	164.85
463.892	172.25
464.35	165.45
464.808	175.05
465.266	174.05
465.724	178.85
466.181	180.45
466.639	168.75
467.097	185.35
467.555	186.95
468.012	187.05
468.47	197.45
468.928	195.95
469.385	206.05
469.843	205.85
470.3	208.45
470.758	208.05
471.215	222.05
471.673	225.15
472.13	230.55
472.588	240.35
473.045	228.45
473.503	228.05
473.96	230.55
474.417	235.45
474.875	245.05
475.332	262.85
475.789	252.25
476.246	260.55
476.704	253.05
477.161	271.05
477.618	258.45
478.075	274.25
478.532	285.15
478.989	303.45
479.446	328.65
479.903	305.25
480.36	289.35
480.817	281.35
481.274	290.95
481.731	297.55
482.188	293.55
482.645	315.85
483.102	319.15
483.558	336.05
484.015	333.75
484.472	331.45
484.929	334.05
485.385	335.05
485.842	350.25
486.299	356.05
486.755	381.05
487.212	350.05
487.668	320.15
488.125	316.25
488.582	321.35
489.038	318.45
489.494	315.45
489.951	326.15
490.407	319.75
490.864	324.45
491.32	330.35
491.776	340.85
492.233	332.55
492.689	324.75
493.145	327.75
493.602	323.75
494.058	335.85
494.514	337.15
494.97	349.25
495.426	352.05
495.882	344.85
496.338	336.35
496.794	349.15
497.251	341.35
497.707	357.65
498.163	348.85
498.618	355.75
499.074	362.05
499.53	375.85
499.986	375.55
500.442	347.55
500.898	355.25
501.354	353.65
501.809	358.25
502.265	351.15
502.721	363.55
503.177	369.15
503.632	369.05
504.088	374.25
504.543	382.35
504.999	385.65
505.455	368.05
505.91	364.65
506.366	361.85
506.821	359.75
507.277	366.95
507.732	366.35
508.187	368.65
508.643	372.95
509.098	368.45
509.553	375.75
510.009	375.15
510.464	382.55
510.919	399.05
511.375	392.45
511.83	396.75
512.285	400.45
512.74	430.65
513.195	429.05
513.65	432.55
514.105	429.95
514.56	430.15
515.015	445.65
515.47	448.35
515.925	436.05
516.38	438.45
516.835	456.35
517.29	448.75
517.745	433.95
518.2	421.65
518.655	421.65
519.109	423.25
519.564	413.15
520.019	398.05
520.474	397.45
520.928	405.15
521.383	402.45
521.838	387.15
522.292	395.15
522.747	393.55
523.201	402.65
523.656	393.05
524.11	389.35
524.565	382.85
525.019	384.15
525.474	391.75
525.928	382.45
526.382	376.65
526.837	374.05
527.291	384.05
527.745	378.45
528.2	379.85
528.654	372.45
529.108	371.15
529.562	371.55
530.016	367.25
530.47	366.85
530.925	369.15
531.379	379.75
531.833	372.75
532.287	369.15
532.741	358.25
533.195	364.45
533.649	365.35
534.103	372.85
534.556	361.45
535.01	363.25
535.464	362.15
535.918	375.55
536.372	372.55
536.826	373.95
537.279	365.55
537.733	373.65
538.187	366.85
538.64	366.75
539.094	374.75
539.548	381.95
540.001	377.85
540.455	378.75
540.908	383.55
541.362	387.95
541.815	390.85
542.269	401.55
542.722	394.25
543.175	404.55
543.629	403.95
544.082	427.05
544.536	410.55
544.989	412.05
545.442	415.85
545.895	415.15
546.349	419.95
546.802	413.05
547.255	419.05
547.708	433.45
548.161	429.55
548.614	440.75
549.067	436.65
549.52	424.55
549.973	423.35
550.426	413.45
550.879	408.45
551.332	415.45
551.785	415.25
552.238	412.85
552.691	422.35
553.144	426.55
553.596	431.55
554.049	439.05
554.502	460.15
554.955	466.85
555.407	456.55
555.86	459.35
556.313	448.45
556.765	446.35
557.218	446.95
557.67	438.15
558.123	445.75
558.576	443.85
559.028	452.25
559.48	450.05
559.933	443.15
560.385	428.65
560.838	412.35
561.29	393.95
561.742	393.65
562.195	382.95
562.647	378.85
563.099	390.55
563.551	388.45
564.004	400.35
564.456	383.25
564.908	377.45
565.36	368.95
565.812	353.75
566.264	349.05
566.716	352.55
567.168	348.35
567.62	352.15
568.072	337.85
568.524	337.55
568.976	338.55
569.428	324.55
569.88	318.95
570.332	335.95
570.784	330.45
571.235	337.15
571.687	334.35
572.139	346.25
572.59	340.85
573.042	352.45
573.494	347.45
573.945	344.05
574.397	321.05
574.849	326.65
575.3	329.45
575.752	319.45
576.203	324.75
576.655	318.25
577.106	317.35
577.557	309.45
578.009	315.65
578.46	308.05
578.912	308.05
579.363	309.65
579.814	309.45
580.265	302.15
580.717	302.75
581.168	306.35
581.619	315.25
582.07	314.25
582.521	315.85
582.972	309.25
583.423	313.25
583.875	309.25
584.326	300.85
584.777	316.95
585.227	332.55
585.678	332.95
586.129	333.95
586.58	343.55
587.031	353.95
587.482	363.55
587.933	379.55
588.384	365.25
588.834	360.05
589.285	368.55
589.736	364.75
590.186	360.55
590.637	356.45
591.088	352.15
591.538	346.85
591.989	343.75
592.439	341.55
592.89	338.45
593.34	318.85
593.791	321.95
594.241	313.15
594.692	314.25
595.142	312.55
595.593	306.95
596.043	313.45
596.493	316.15
596.943	324.05
597.394	324.45
597.844	320.75
598.294	335.25
598.744	349.05
599.195	359.35
599.645	373.15
600.095	392.25
600.545	430.35
600.995	451.65
601.445	489.65
601.895	516.95
602.345	545.15
602.795	534.85
603.245	501.85
603.695	469.05
604.145	450.35
604.594	423.45
605.044	397.45
605.494	361.35
605.944	332.55
606.393	333.05
606.843	321.35
607.293	317.65
607.743	322.85
608.192	330.65
608.642	344.75
609.091	341.95
609.541	342.65
609.99	329.75
610.44	338.15
610.889	315.45
611.339	307.85
611.788	288.55
612.238	304.15
612.687	310.05
613.136	304.45
613.586	312.05
614.035	310.55
614.484	309.15
614.933	304.55
615.383	314.45
615.832	301.65
616.281	298.15
616.73	293.15
617.179	287.35
617.628	287.45
618.077	271.35
618.526	268.35
618.975	267.95
619.424	277.65
619.873	265.05
620.322	266.35
620.771	254.55
621.22	262.25
621.669	253.35
622.118	246.85
622.567	243.95
623.015	237.75
623.464	245.05
623.913	236.85
624.361	227.45
624.81	231.55
625.259	229.95
625.707	241.95
626.156	229.45
626.604	247.05
627.053	232.15
627.501	232.75
627.95	239.65
628.398	242.95
628.847	235.05
629.295	236.05
629.744	244.75
630.192	243.95
630.64	232.25
631.089	216.75
631.537	224.35
631.985	208.25
632.433	218.65
632.881	206.65
633.33	214.25
633.778	208.75
634.226	215.05
634.674	217.95
635.122	220.85
635.57	221.35
636.018	222.35
636.466	238.25
636.914	217.15
637.362	234.55
637.81	230.55
638.258	235.45
638.705	229.25
639.153	249.75
639.601	244.55
640.049	252.75
640.497	271.35
640.944	283.95
641.392	255.15
641.84	235.55
642.287	222.25
642.735	202.05
643.182	197.85
643.63	203.45
644.078	195.35
644.525	210.05
644.973	205.95
645.42	197.75
645.867	201.55
646.315	206.25
646.762	203.75
647.21	208.15
647.657	205.75
648.104	203.35
648.551	198.45
648.999	194.75
649.446	190.75
649.893	181.65
650.34	179.65
650.787	183.35
651.234	200.55
651.682	195.45
652.129	201.05
652.576	200.45
653.023	230.95
653.47	249.55
653.917	252.45
654.363	267.25
654.81	282.15
655.257	270.45
655.704	245.05
656.151	205.05
656.598	198.35
657.044	184.25
657.491	184.55
657.938	173.65
658.385	188.75
658.831	193.95
659.278	193.65
659.724	181.85
660.171	181.65
660.618	179.55
661.064	183.35
661.511	179.65
661.957	184.25
662.404	183.75
662.85	200.15
663.296	194.45
663.743	180.25
664.189	179.15
664.635	181.05
665.082	180.15
665.528	184.35
665.974	183.15
666.42	180.75
666.867	184.45
667.313	169.45
667.759	167.75
668.205	160.25
668.651	168.55
669.097	167.35
669.543	160.75
669.989	161.55
670.435	171.55
670.881	169.45
671.327	165.75
671.773	181.05
672.219	193.35
672.665	215.35
673.11	231.95
673.556	264.85
674.002	280.65
674.448	278.45
674.893	225.35
675.339	195.65
675.785	178.85
676.23	165.55
676.676	153.45
677.122	154.75
677.567	147.35
678.013	147.75
678.458	138.05
678.904	140.65
679.349	137.45
679.794	142.25
680.24	133.85
680.685	138.25
681.131	132.55
681.576	135.25
682.021	140.75
682.466	135.05
682.912	133.95
683.357	140.55
683.802	150.85
684.247	164.25
684.692	185.05
685.137	197.05
685.583	229.05
686.028	243.75
686.473	222.85
686.918	176.55
687.363	176.65
687.807	166.75
688.252	146.35
688.697	138.95
689.142	133.75
689.587	128.25
690.032	128.95
690.477	139.35
690.921	143.65
691.366	154.25
691.811	161.35
692.255	181.15
692.7	192.95
693.145	207.05
693.589	284.75
694.034	482.45
694.478	677.15
694.923	809.35
695.367	1083.45
695.812	553.75
696.256	219.45
696.701	151.55
697.145	139.25
697.59	133.25
698.034	127.45
698.478	132.65
698.922	125.95
699.367	129.75
699.811	133.15
700.255	146.95
700.699	153.95
701.143	174.25
701.588	205.15
702.032	223.85
702.476	224.65
702.92	201.25
703.364	200.65
703.808	257.05
704.252	443.95
704.696	640.65
705.14	789.05
705.584	1021.65
706.027	496.45
706.471	220.45
706.915	165.55
707.359	148.35
707.803	128.75
708.246	124.65
708.69	130.95
709.134	126.45
709.577	131.45
710.021	129.25
710.465	124.95
710.908	120.15
711.352	122.25
711.795	116.75
712.239	146.45
712.682	151.05
713.126	175.55
713.569	197.15
714.012	154.85
714.456	124.45
714.899	122.75
715.342	108.25
715.786	101.55
716.229	105.75
716.672	102.35
717.115	100.25
717.558	97.15
718.002	96.45
718.445	106.75
718.888	120.45
719.331	123.45
719.774	125.85
720.217	120.25
720.66	116.15
721.103	105.25
721.546	98.65
721.989	102.35
722.432	87.15
722.874	91.85
723.317	90.05
723.76	84.35
724.203	114.15
724.645	124.75
725.088	186.85
725.531	243.15
725.974	290.25
726.416	239.55
726.859	131.05
727.301	98.65
727.744	91.35
728.187	96.85
728.629	95.85
729.071	94.35
729.514	106.25
729.956	111.75
730.399	108.65
730.841	118.15
731.283	105.65
731.726	105.55
732.168	102.35
732.61	98.65
733.053	116.15
733.495	123.65
733.937	140.65
734.379	164.75
734.821	181.35
735.263	229.45
735.705	350.95
736.148	675.95
736.59	1150.75
737.032	1448.65
737.474	1198.75
737.916	366.55
738.357	186.75
738.799	134.05
739.241	121.55
739.683	108.55
740.125	126.25
740.567	124.95
741.008	134.25
741.45	132.95
741.892	136.75
742.334	147.95
742.775	156.55
743.217	140.65
743.658	108.65
744.1	102.95
744.542	97.05
744.983	127.55
745.425	145.05
745.866	151.15
746.307	112.75
746.749	112.75
747.19	131.05
747.632	186.45
748.073	361.15
748.514	804.45
748.956	1299.95
749.397	1624.05
749.838	1367.55
750.279	1415.05
750.72	702.75
751.162	239.95
751.603	139.95
752.044	108.45
752.485	84.35
752.926	80.75
753.367	81.35
753.808	78.65
754.249	76.35
754.69	67.85
755.131	72.55
755.572	70.05
756.013	68.55
756.453	70.05
756.894	73.95
757.335	75.65
757.776	77.15
758.216	77.65
758.657	82.85
759.098	78.95
759.538	89.35
759.979	109.45
760.42	147.05
760.86	293.25
761.301	776.65
761.741	1950.45
762.182	3074.95
762.622	2202.65
763.063	619.55
763.503	239.65
763.943	137.95
764.384	107.85
764.824	93.25
765.264	85.05
765.705	83.25
766.145	73.65
766.585	66.75
767.025	62.15
767.465	56.05
767.906	59.25
768.346	70.95
768.786	63.05
