Data from 20171114-ORNL-Ar_H_NY_Subt18_08-03-46-503.txt Node
Date: Tue Nov 14 08:03:46 EST 2017
User: Ender
Spectrometer: HR+D1039
Trigger mode: 0
Integration Time (sec): 2.730000E-2
Scans to average: 10
Electric dark correction enabled: true
Nonlinearity correction enabled: false
Boxcar width: 0
XAxis mode: Wavelengths
Number of Pixels in Spectrum: 2048
>>>>>Begin Spectral Data<<<<<
187.836	-6.41
188.309	-6.41
188.782	-6.41
189.255	-1.31
189.728	-1.81
190.201	1.29
190.674	2.39
191.147	6.89
191.619	-7.61
192.092	1.79
192.565	3.69
193.038	2.39
193.511	-0.91
193.984	3.59
194.456	0.69
194.929	2.99
195.402	-0.91
195.874	-6.71
196.347	-1.61
196.82	-6.51
197.292	8.29
197.765	0.79
198.237	-6.41
198.71	-0.81
199.182	1.29
199.655	2.39
200.127	-0.11
200.6	-1.61
201.072	-4.41
201.544	-2.91
202.017	-3.31
202.489	1.49
202.961	-1.51
203.433	-5.41
203.906	-2.51
204.378	-4.51
204.85	-5.41
205.322	-6.31
205.794	2.79
206.266	1.29
206.739	-7.41
207.211	7.79
207.683	-4.41
208.155	-0.01
208.627	-3.31
209.099	-0.81
209.57	-7.61
210.042	-4.91
210.514	-2.91
210.986	-0.11
211.458	-11.71
211.93	-7.51
212.402	3.19
212.873	-10.61
213.345	-2.31
213.817	-10.91
214.288	-3.61
214.76	-6.51
215.232	-3.11
215.703	1.59
216.175	4.89
216.646	-1.61
217.118	-3.21
217.589	-2.31
218.061	-3.81
218.532	-0.71
219.004	-4.11
219.475	-2.61
219.946	-5.41
220.418	-6.01
220.889	-1.81
221.36	5.59
221.832	-3.11
222.303	-10.41
222.774	0.79
223.245	-9.51
223.717	-4.41
224.188	2.29
224.659	-6.11
225.13	-4.61
225.601	-6.81
226.072	4.99
226.543	5.49
227.014	-3.71
227.485	-2.01
227.956	-6.01
228.427	-1.51
228.898	1.69
229.369	3.39
229.839	-1.41
230.31	-5.91
230.781	-0.91
231.252	-0.31
231.722	-8.51
232.193	-1.61
232.664	-2.61
233.135	2.19
233.605	-3.81
234.076	-5.41
234.546	0.79
235.017	-4.51
235.487	2.19
235.958	-5.31
236.428	-2.91
236.899	-1.91
237.369	2.19
237.84	-7.31
238.31	1.29
238.78	1.49
239.251	-0.21
239.721	-8.21
240.191	-5.21
240.662	-2.11
241.132	5.89
241.602	-5.01
242.072	3.79
242.542	9.19
243.013	-2.91
243.483	-2.41
243.953	1.49
244.423	-5.71
244.893	-4.41
245.363	-1.71
245.833	-0.31
246.303	-4.71
246.773	4.69
247.243	4.69
247.712	-1.21
248.182	2.19
248.652	-3.71
249.122	-9.91
249.592	0.49
250.061	2.29
250.531	13.69
251.001	4.69
251.471	3.09
251.94	3.59
252.41	-1.41
252.879	-3.51
253.349	7.19
253.818	4.59
254.288	5.29
254.757	0.39
255.227	-2.61
255.696	-0.71
256.166	-1.11
256.635	3.59
257.105	-4.11
257.574	5.29
258.043	-1.91
258.513	1.49
258.982	0.29
259.451	-2.11
259.92	7.69
260.389	2.89
260.859	19.59
261.328	1.59
261.797	7.89
262.266	3.69
262.735	7.29
263.204	1.09
263.673	-3.71
264.142	6.19
264.611	-3.61
265.08	-3.91
265.549	-5.01
266.018	5.09
266.487	-4.91
266.955	-4.51
267.424	-4.31
267.893	7.69
268.362	-2.61
268.83	-0.21
269.299	4.09
269.768	3.59
270.236	3.89
270.705	0.19
271.174	1.79
271.642	4.49
272.111	1.69
272.579	6.59
273.048	5.69
273.516	1.49
273.985	5.49
274.453	6.99
274.922	12.69
275.39	5.89
275.858	-2.31
276.327	6.19
276.795	11.89
277.263	9.99
277.731	14.19
278.2	16.39
278.668	12.79
279.136	5.49
279.604	8.39
280.072	10.19
280.54	7.89
281.008	1.69
281.477	4.99
281.945	13.79
282.413	9.99
282.881	10.59
283.348	4.59
283.816	10.89
284.284	4.79
284.752	11.69
285.22	7.19
285.688	10.99
286.156	8.59
286.623	15.59
287.091	10.99
287.559	13.99
288.026	8.49
288.494	8.59
288.962	0.59
289.429	-0.21
289.897	14.69
290.364	10.99
290.832	12.89
291.3	13.49
291.767	11.29
292.234	13.99
292.702	4.59
293.169	10.79
293.637	8.49
294.104	10.49
294.571	-0.31
295.039	9.39
295.506	15.99
295.973	13.09
296.44	7.89
296.908	16.19
297.375	5.99
297.842	11.89
298.309	7.99
298.776	4.59
299.243	15.19
299.71	5.09
300.177	9.89
300.644	12.59
301.111	2.19
301.578	16.79
302.045	14.99
302.512	16.49
302.979	16.69
303.446	18.99
303.913	13.79
304.379	12.39
304.846	15.39
305.313	15.19
305.78	12.59
306.246	12.49
306.713	20.69
307.18	19.09
307.646	21.39
308.113	22.09
308.579	11.99
309.046	18.09
309.512	18.89
309.979	12.09
310.445	21.49
310.912	22.99
311.378	28.19
311.845	24.09
312.311	23.69
312.777	25.49
313.244	19.89
313.71	31.09
314.176	17.59
314.642	19.29
315.109	21.89
315.575	31.99
316.041	27.39
316.507	25.29
316.973	27.59
317.439	27.39
317.905	28.69
318.371	30.29
318.837	24.79
319.303	23.19
319.769	27.59
320.235	28.59
320.701	29.19
321.167	30.29
321.633	23.79
322.099	28.09
322.564	29.89
323.03	31.89
323.496	33.69
323.962	28.59
324.427	25.79
324.893	37.09
325.359	30.59
325.824	32.59
326.29	35.69
326.755	28.69
327.221	34.59
327.686	30.69
328.152	36.49
328.617	32.59
329.083	40.69
329.548	38.09
330.014	45.79
330.479	38.99
330.944	33.29
331.41	38.59
331.875	39.59
332.34	37.79
332.805	36.49
333.271	42.79
333.736	34.39
334.201	42.99
334.666	47.99
335.131	44.19
335.596	42.79
336.061	46.09
336.526	33.99
336.991	42.39
337.456	49.49
337.921	42.99
338.386	42.29
338.851	42.29
339.316	45.29
339.781	43.39
340.246	47.49
340.711	42.59
341.175	44.09
341.64	37.39
342.105	48.39
342.569	52.49
343.034	60.29
343.499	48.79
343.963	47.69
344.428	58.19
344.893	58.39
345.357	59.19
345.822	55.79
346.286	55.79
346.751	58.49
347.215	60.59
347.679	62.69
348.144	84.39
348.608	74.89
349.073	65.69
349.537	70.49
350.001	68.39
350.465	80.19
350.93	72.59
351.394	70.89
351.858	68.59
352.322	80.19
352.786	75.69
353.25	89.59
353.715	92.09
354.179	87.99
354.643	101.29
355.107	98.39
355.571	92.69
356.035	89.79
356.498	98.09
356.962	95.99
357.426	102.29
357.89	97.39
358.354	85.79
358.818	81.79
359.281	77.19
359.745	79.89
360.209	75.39
360.673	73.79
361.136	79.69
361.6	80.39
362.064	84.09
362.527	81.49
362.991	89.09
363.454	83.89
363.918	81.09
364.381	82.89
364.845	87.99
365.308	85.79
365.772	89.39
366.235	88.49
366.698	84.99
367.162	87.09
367.625	81.09
368.088	90.09
368.552	91.39
369.015	89.79
369.478	93.09
369.941	102.19
370.404	93.19
370.867	98.69
371.331	105.09
371.794	103.69
372.257	99.79
372.72	102.69
373.183	107.19
373.646	99.09
374.109	100.69
374.572	104.79
375.035	105.09
375.497	106.99
375.96	102.69
376.423	112.99
376.886	109.19
377.349	112.19
377.811	105.29
378.274	104.99
378.737	107.59
379.199	110.89
379.662	116.99
380.125	117.89
380.587	118.89
381.05	120.39
381.512	128.69
381.975	122.39
382.437	131.59
382.9	124.89
383.362	129.79
383.825	131.99
384.287	134.79
384.75	130.49
385.212	130.39
385.674	136.79
386.136	136.39
386.599	127.99
387.061	136.79
387.523	132.69
387.985	127.69
388.447	139.29
388.91	134.79
389.372	136.39
389.834	145.59
390.296	136.59
390.758	143.79
391.22	148.29
391.682	164.09
392.144	195.89
392.606	177.09
393.068	153.69
393.529	162.49
393.991	150.49
394.453	143.69
394.915	148.49
395.377	159.49
395.838	166.69
396.3	153.59
396.762	154.69
397.224	142.89
397.685	140.79
398.147	138.89
398.608	140.09
399.07	145.09
399.531	149.29
399.993	153.29
400.454	165.99
400.916	160.19
401.377	156.09
401.839	156.79
402.3	161.19
402.762	164.39
403.223	190.89
403.684	178.99
404.145	170.49
404.607	172.29
405.068	174.19
405.529	173.19
405.99	184.69
406.451	184.99
406.913	184.49
407.374	180.49
407.835	176.29
408.296	178.39
408.757	183.49
409.218	193.09
409.679	186.59
410.14	185.79
410.601	188.69
411.062	191.49
411.522	196.69
411.983	193.69
412.444	193.79
412.905	203.69
413.366	199.19
413.826	214.59
414.287	234.79
414.748	291.39
415.208	274.79
415.669	231.09
416.13	226.59
416.59	220.39
417.051	238.79
417.511	234.99
417.972	249.69
418.432	271.49
418.893	321.39
419.353	280.29
419.814	215.59
420.274	195.89
420.734	198.79
421.195	211.79
421.655	211.89
422.115	203.79
422.576	205.99
423.036	212.49
423.496	228.69
423.956	235.39
424.416	244.19
424.876	280.19
425.336	272.89
425.797	279.09
426.257	278.29
426.717	254.89
427.177	252.09
427.637	233.09
428.097	246.39
428.556	251.79
429.016	284.49
429.476	270.59
429.936	284.59
430.396	279.89
430.856	299.19
431.315	320.69
431.775	342.79
432.235	385.79
432.694	365.59
433.154	367.59
433.614	379.09
434.073	339.49
434.533	292.89
434.993	280.49
435.452	286.19
435.912	287.79
436.371	285.29
436.83	275.89
437.29	273.09
437.749	264.19
438.209	249.99
438.668	272.39
439.127	282.09
439.587	266.09
440.046	244.29
440.505	255.29
440.964	267.39
441.424	305.09
441.883	301.79
442.342	264.79
442.801	242.69
443.26	231.09
443.719	233.79
444.178	228.19
444.637	226.49
445.096	232.29
445.555	238.79
446.014	243.09
446.473	240.69
446.932	245.99
447.391	245.99
447.849	242.69
448.308	230.39
448.767	233.19
449.226	248.89
449.685	248.59
450.143	258.09
450.602	254.99
451.061	242.49
451.519	245.69
451.978	248.19
452.436	235.69
452.895	243.49
453.353	256.39
453.812	250.19
454.27	252.59
454.729	244.39
455.187	251.89
455.646	249.19
456.104	249.99
456.562	264.99
457.021	273.19
457.479	259.79
457.937	272.79
458.395	267.29
458.854	256.79
459.312	259.19
459.77	266.79
460.228	264.69
460.686	256.89
461.144	257.59
461.602	255.79
462.06	259.19
462.518	262.09
462.976	271.59
463.434	267.69
463.892	273.19
464.35	280.59
464.808	294.39
465.266	276.79
465.724	279.29
466.181	283.69
466.639	278.69
467.097	304.79
467.555	305.59
468.012	305.19
468.47	301.89
468.928	326.59
469.385	345.59
469.843	338.39
470.3	342.29
470.758	349.09
471.215	376.59
471.673	394.69
472.13	387.39
472.588	409.69
473.045	373.49
473.503	384.09
473.96	392.79
474.417	404.39
474.875	430.59
475.332	463.49
475.789	459.59
476.246	456.19
476.704	471.89
477.161	490.29
477.618	509.29
478.075	537.39
478.532	587.79
478.989	651.19
479.446	719.99
479.903	724.49
480.36	769.49
480.817	807.99
481.274	895.79
481.731	978.79
482.188	1048.99
482.645	1194.79
483.102	1275.69
483.558	1395.59
484.015	1431.09
484.472	1421.99
484.929	1387.39
485.385	1336.29
485.842	1297.99
486.299	1262.89
486.755	1184.19
487.212	1028.29
487.668	902.89
488.125	829.59
488.582	757.69
489.038	727.79
489.494	692.49
489.951	660.99
490.407	654.19
490.864	617.69
491.32	623.99
491.776	617.89
492.233	615.29
492.689	592.19
493.145	585.99
493.602	584.79
494.058	590.39
494.514	585.19
494.97	597.59
495.426	610.69
495.882	588.39
496.338	580.79
496.794	587.49
497.251	581.09
497.707	605.89
498.163	601.69
498.618	599.59
499.074	593.39
499.53	618.09
499.986	617.39
500.442	602.59
500.898	590.79
501.354	583.79
501.809	588.19
502.265	595.49
502.721	592.89
503.177	604.59
503.632	603.39
504.088	611.79
504.543	634.89
504.999	630.89
505.455	613.29
505.91	599.79
506.366	592.99
506.821	605.09
507.277	603.29
507.732	606.49
508.187	604.09
508.643	610.29
509.098	615.39
509.553	622.49
510.009	640.49
510.464	632.49
510.919	654.99
511.375	656.59
511.83	659.69
512.285	670.09
512.74	703.79
513.195	706.79
513.65	708.09
514.105	711.09
514.56	704.39
515.015	723.09
515.47	735.79
515.925	720.99
516.38	717.29
516.835	730.89
517.29	721.69
517.745	729.39
518.2	714.39
518.655	686.49
519.109	674.59
519.564	673.89
520.019	677.99
520.474	675.59
520.928	669.39
521.383	669.09
521.838	651.79
522.292	653.79
522.747	658.19
523.201	649.19
523.656	645.99
524.11	641.69
524.565	642.39
525.019	636.79
525.474	642.69
525.928	637.09
526.382	635.99
526.837	637.29
527.291	632.79
527.745	624.39
528.2	640.69
528.654	626.19
529.108	622.19
529.562	622.89
530.016	624.19
530.47	616.49
530.925	624.59
531.379	628.29
531.833	628.89
532.287	636.59
532.741	616.39
533.195	624.09
533.649	630.69
534.103	633.99
534.556	621.49
535.01	620.79
535.464	622.09
535.918	629.79
536.372	637.09
536.826	628.79
537.279	619.19
537.733	620.39
538.187	631.89
538.64	622.89
539.094	637.79
539.548	639.39
540.001	639.89
540.455	633.59
540.908	646.29
541.362	650.79
541.815	649.59
542.269	670.49
542.722	668.89
543.175	672.99
543.629	677.89
544.082	699.89
544.536	685.89
544.989	689.49
545.442	701.49
545.895	695.49
546.349	686.69
546.802	687.99
547.255	693.59
547.708	688.29
548.161	710.69
548.614	709.69
549.067	716.59
549.52	707.79
549.973	699.69
550.426	697.79
550.879	689.59
551.332	696.09
551.785	693.19
552.238	688.69
552.691	704.89
553.144	711.99
553.596	724.49
554.049	727.69
554.502	762.29
554.955	776.09
555.407	771.89
555.86	763.39
556.313	752.09
556.765	745.29
557.218	746.99
557.67	740.49
558.123	737.29
558.576	739.89
559.028	740.09
559.48	735.59
559.933	741.69
560.385	709.89
560.838	694.79
561.29	664.99
561.742	658.79
562.195	653.79
562.647	657.79
563.099	654.39
563.551	660.59
564.004	660.29
564.456	648.49
564.908	635.99
565.36	610.89
565.812	615.59
566.264	598.29
566.716	589.49
567.168	583.59
567.62	596.09
568.072	580.79
568.524	580.99
568.976	581.09
569.428	562.59
569.88	563.69
570.332	564.79
570.784	570.29
571.235	571.49
571.687	573.79
572.139	584.39
572.59	586.39
573.042	583.29
573.494	585.99
573.945	574.39
574.397	568.79
574.849	567.89
575.3	560.09
575.752	553.49
576.203	552.29
576.655	559.29
577.106	549.59
577.557	543.09
578.009	548.19
578.46	539.19
578.912	526.39
579.363	533.79
579.814	533.09
580.265	534.79
580.717	534.69
581.168	544.69
581.619	542.69
582.07	545.89
582.521	536.49
582.972	528.79
583.423	542.79
583.875	546.79
584.326	546.29
584.777	567.29
585.227	594.89
585.678	628.89
586.129	649.29
586.58	690.59
587.031	719.19
587.482	777.29
587.933	845.99
588.384	782.99
588.834	670.79
589.285	620.89
589.736	619.59
590.186	620.99
590.637	613.69
591.088	595.19
591.538	588.19
591.989	579.09
592.439	572.99
592.89	570.69
593.34	555.49
593.791	553.39
594.241	552.49
594.692	548.29
595.142	547.39
595.593	546.49
596.043	553.89
596.493	549.09
596.943	554.69
597.394	554.99
597.844	556.59
598.294	563.39
598.744	580.89
599.195	603.79
599.645	648.89
600.095	664.99
600.545	701.59
600.995	740.79
601.445	783.59
601.895	838.49
602.345	877.99
602.795	864.19
603.245	830.49
603.695	790.49
604.145	749.39
604.594	713.39
605.044	665.29
605.494	615.99
605.944	589.69
606.393	563.79
606.843	553.39
607.293	569.69
607.743	550.59
608.192	567.49
608.642	570.99
609.091	567.09
609.541	575.09
609.99	578.89
610.44	579.09
610.889	550.79
611.339	536.59
611.788	528.09
612.238	527.39
612.687	538.19
613.136	538.09
613.586	535.89
614.035	533.59
614.484	549.69
614.933	544.49
615.383	539.79
615.832	534.59
616.281	538.29
616.73	520.19
617.179	512.69
617.628	477.79
618.077	479.09
618.526	475.89
618.975	461.99
619.424	457.19
619.873	463.39
620.322	460.09
620.771	456.69
621.22	452.79
621.669	446.29
622.118	440.49
622.567	430.39
623.015	419.99
623.464	424.49
623.913	416.69
624.361	410.09
624.81	406.59
625.259	415.79
625.707	420.29
626.156	413.89
626.604	427.59
627.053	421.39
627.501	423.59
627.95	427.89
628.398	432.59
628.847	418.69
629.295	424.39
629.744	423.69
630.192	419.39
630.64	414.59
631.089	406.99
631.537	398.19
631.985	401.39
632.433	408.79
632.881	396.89
633.33	407.69
633.778	401.19
634.226	394.89
634.674	396.89
635.122	403.49
635.57	403.29
636.018	416.59
636.466	421.19
636.914	402.19
637.362	417.89
637.81	420.99
638.258	435.39
638.705	429.79
639.153	439.59
639.601	445.99
640.049	474.59
640.497	495.29
640.944	518.09
641.392	470.19
641.84	452.09
642.287	426.09
642.735	419.09
643.182	415.99
643.63	405.19
644.078	411.49
644.525	430.89
644.973	424.49
645.42	438.79
645.867	447.99
646.315	459.69
646.762	478.49
647.21	497.79
647.657	512.29
648.104	542.09
648.551	552.19
648.999	593.69
649.446	629.49
649.893	694.29
650.34	783.79
650.787	938.79
651.234	1140.99
651.682	1480.69
652.129	1953.89
652.576	2784.69
653.023	4103.39
653.47	5703.09
653.917	7160.49
654.363	8434.19
654.81	9549.39
655.257	9090.39
655.704	6009.59
656.151	3533.69
656.598	2312.89
657.044	1649.49
657.491	1277.49
657.938	1016.29
658.385	864.19
658.831	756.39
659.278	683.29
659.724	598.69
660.171	556.79
660.618	513.39
661.064	480.99
661.511	456.69
661.957	447.49
662.404	433.29
662.85	438.59
663.296	431.39
663.743	396.89
664.189	386.99
664.635	382.09
665.082	373.99
665.528	373.69
665.974	365.39
666.42	362.59
666.867	354.99
667.313	337.29
667.759	340.09
668.205	328.39
668.651	335.49
669.097	333.39
669.543	325.29
669.989	327.19
670.435	321.09
670.881	319.89
671.327	322.29
671.773	342.19
672.219	352.29
672.665	390.49
673.11	412.29
673.556	447.79
674.002	484.29
674.448	473.39
674.893	399.79
675.339	343.49
675.785	314.19
676.23	308.29
676.676	283.39
677.122	273.69
677.567	258.89
678.013	262.49
678.458	256.19
678.904	256.09
679.349	246.79
679.794	250.39
680.24	254.59
680.685	251.69
681.131	246.89
681.576	249.69
682.021	249.49
682.466	246.69
682.912	246.49
683.357	241.99
683.802	267.49
684.247	289.39
684.692	322.39
685.137	344.49
685.583	381.69
686.028	401.99
686.473	377.79
686.918	317.49
687.363	295.79
687.807	281.39
688.252	258.59
688.697	262.29
689.142	240.29
689.587	236.49
690.032	226.69
690.477	235.69
690.921	248.39
691.366	273.49
691.811	277.39
692.255	303.29
692.7	325.69
693.145	342.69
693.589	481.99
694.034	771.69
694.478	1069.49
694.923	1264.89
695.367	1683.59
695.812	876.89
696.256	362.69
696.701	260.19
697.145	246.69
697.59	229.99
698.034	228.19
698.478	228.99
698.922	232.29
699.367	220.79
699.811	247.39
700.255	254.29
700.699	264.59
701.143	288.99
701.588	335.79
702.032	372.29
702.476	369.49
702.92	349.89
703.364	346.79
703.808	439.49
704.252	699.39
704.696	1000.79
705.14	1222.39
705.584	1587.79
706.027	777.99
706.471	376.59
706.915	280.79
707.359	246.39
707.803	222.09
708.246	212.59
708.69	226.19
709.134	222.79
709.577	226.29
710.021	233.09
710.465	215.79
710.908	213.19
711.352	216.49
711.795	215.69
712.239	242.99
712.682	259.99
713.126	289.89
713.569	322.99
714.012	259.79
714.456	216.39
714.899	208.49
715.342	196.69
715.786	181.29
716.229	180.69
716.672	185.39
717.115	176.29
717.558	183.09
718.002	177.69
718.445	182.89
718.888	195.39
719.331	200.69
719.774	219.49
720.217	214.59
720.66	196.39
721.103	184.49
721.546	174.89
721.989	174.49
722.432	162.79
722.874	160.89
723.317	155.59
723.76	164.89
724.203	181.89
724.645	213.99
725.088	302.29
725.531	399.29
725.974	459.99
726.416	390.79
726.859	208.39
727.301	172.69
727.744	167.89
728.187	171.29
728.629	170.99
729.071	170.59
729.514	180.39
729.956	193.49
730.399	198.09
730.841	203.59
731.283	192.99
731.726	186.89
732.168	183.49
732.61	188.09
733.053	202.29
733.495	220.19
733.937	239.09
734.379	275.39
734.821	293.39
735.263	363.79
735.705	563.49
736.148	1062.09
736.59	1812.49
737.032	2264.09
737.474	1854.99
737.916	588.49
738.357	299.79
738.799	233.49
739.241	212.89
739.683	198.29
740.125	202.29
740.567	207.99
741.008	225.79
741.45	230.59
741.892	227.59
742.334	255.39
742.775	273.09
743.217	250.89
743.658	194.29
744.1	179.59
744.542	187.49
744.983	229.59
745.425	271.39
745.866	265.19
746.307	209.09
746.749	191.99
747.19	222.09
747.632	308.89
748.073	579.59
748.514	1256.69
748.956	2044.09
749.397	2554.69
749.838	2131.49
750.279	2201.59
750.72	1113.69
751.162	399.99
751.603	233.39
752.044	178.59
752.485	153.19
752.926	151.59
753.367	142.49
753.808	135.99
754.249	134.19
754.69	137.59
755.131	132.39
755.572	127.49
756.013	126.19
756.453	133.99
756.894	124.39
757.335	132.09
757.776	136.79
758.216	129.29
758.657	140.19
759.098	135.09
759.538	160.39
759.979	184.29
760.42	256.19
760.86	471.89
761.301	1220.19
761.741	3096.19
762.182	4926.59
762.622	3462.59
763.063	975.59
763.503	385.39
763.943	239.29
