Data from 20171114-ORNL-Ar_H_NY_Subt18_08-03-56-603.txt Node
Date: Tue Nov 14 08:03:56 EST 2017
User: Ender
Spectrometer: HR+D1039
Trigger mode: 0
Integration Time (sec): 2.730000E-2
Scans to average: 10
Electric dark correction enabled: true
Nonlinearity correction enabled: false
Boxcar width: 0
XAxis mode: Wavelengths
Number of Pixels in Spectrum: 2048
>>>>>Begin Spectral Data<<<<<
187.836	-7.79
188.309	-7.79
188.782	-7.79
189.255	-0.79
189.728	0.41
190.201	8.61
190.674	3.91
191.147	6.31
191.619	-9.29
192.092	-4.29
192.565	0.21
193.038	-3.39
193.511	4.91
193.984	1.71
194.456	-4.19
194.929	-0.39
195.402	3.21
195.874	0.81
196.347	0.61
196.82	-5.29
197.292	6.71
197.765	-0.69
198.237	-7.19
198.71	3.21
199.182	0.21
199.655	4.91
200.127	3.91
200.6	3.31
201.072	1.01
201.544	-4.29
202.017	0.91
202.489	5.41
202.961	-5.49
203.433	-1.19
203.906	-7.59
204.378	-3.19
204.85	-5.39
205.322	-4.99
205.794	-5.39
206.266	4.01
206.739	-6.19
207.211	-1.39
207.683	-4.39
208.155	-4.69
208.627	-9.49
209.099	-2.89
209.57	-4.99
210.042	-11.99
210.514	-0.39
210.986	0.91
211.458	-9.09
211.93	-0.09
212.402	-1.79
212.873	-2.09
213.345	-8.49
213.817	-9.99
214.288	-5.29
214.76	-7.99
215.232	-3.69
215.703	-3.99
216.175	-4.39
216.646	-1.69
217.118	-3.69
217.589	-7.19
218.061	-5.29
218.532	-9.79
219.004	3.31
219.475	-4.49
219.946	-6.79
220.418	-3.29
220.889	2.31
221.36	-3.19
221.832	-0.29
222.303	-5.69
222.774	-4.89
223.245	-13.99
223.717	-8.29
224.188	-7.19
224.659	-3.69
225.13	-7.69
225.601	-1.09
226.072	-3.39
226.543	-1.79
227.014	-1.19
227.485	-0.59
227.956	-11.89
228.427	-0.69
228.898	1.81
229.369	0.41
229.839	-8.59
230.31	-11.69
230.781	1.31
231.252	-7.99
231.722	-6.09
232.193	-4.59
232.664	-2.19
233.135	-1.29
233.605	-6.99
234.076	-9.19
234.546	0.61
235.017	8.51
235.487	-4.29
235.958	-5.19
236.428	-3.79
236.899	-3.39
237.369	2.51
237.84	-6.29
238.31	-4.09
238.78	-2.99
239.251	-2.59
239.721	-0.29
240.191	-1.99
240.662	-8.19
241.132	1.11
241.602	-12.79
242.072	-2.89
242.542	-3.79
243.013	-3.69
243.483	1.11
243.953	1.31
244.423	-4.39
244.893	-3.39
245.363	1.11
245.833	-1.39
246.303	1.21
246.773	10.21
247.243	0.51
247.712	0.81
248.182	3.11
248.652	0.21
249.122	-15.99
249.592	-5.39
250.061	6.01
250.531	7.51
251.001	-3.99
251.471	5.71
251.94	5.71
252.41	-0.39
252.879	-1.79
253.349	4.31
253.818	0.21
254.288	-1.19
254.757	0.61
255.227	-5.09
255.696	3.21
256.166	3.11
256.635	6.31
257.105	1.91
257.574	-2.09
258.043	0.21
258.513	-9.69
258.982	3.51
259.451	-1.09
259.92	3.61
260.389	-5.39
260.859	8.31
261.328	-1.39
261.797	8.11
262.266	5.01
262.735	2.41
263.204	1.71
263.673	-4.59
264.142	7.11
264.611	-5.89
265.08	-5.19
265.549	0.51
266.018	5.91
266.487	1.31
266.955	-4.99
267.424	-0.79
267.893	0.91
268.362	-4.89
268.83	-2.29
269.299	9.21
269.768	0.11
270.236	1.31
270.705	-4.29
271.174	0.51
271.642	0.71
272.111	-1.49
272.579	5.31
273.048	3.11
273.516	0.51
273.985	2.91
274.453	0.91
274.922	8.81
275.39	4.41
275.858	-2.89
276.327	-0.69
276.795	9.31
277.263	1.71
277.731	12.41
278.2	7.81
278.668	-0.79
279.136	6.41
279.604	5.71
280.072	3.51
280.54	0.31
281.008	4.71
281.477	7.41
281.945	12.11
282.413	5.61
282.881	2.71
283.348	-0.89
283.816	5.91
284.284	2.81
284.752	13.51
285.22	10.71
285.688	6.21
286.156	4.41
286.623	13.81
287.091	3.71
287.559	9.71
288.026	12.31
288.494	10.11
288.962	5.81
289.429	6.71
289.897	14.61
290.364	4.41
290.832	5.61
291.3	8.21
291.767	6.11
292.234	13.71
292.702	7.81
293.169	4.81
293.637	11.51
294.104	9.31
294.571	10.71
295.039	8.01
295.506	6.01
295.973	8.51
296.44	11.41
296.908	12.81
297.375	9.41
297.842	10.01
298.309	6.81
298.776	8.21
299.243	16.81
299.71	6.91
300.177	10.51
300.644	16.81
301.111	13.71
301.578	10.11
302.045	2.61
302.512	15.71
302.979	17.91
303.446	18.11
303.913	14.21
304.379	9.41
304.846	14.91
305.313	14.61
305.78	14.31
306.246	13.31
306.713	14.71
307.18	14.01
307.646	18.61
308.113	19.41
308.579	13.91
309.046	18.71
309.512	13.01
309.979	11.01
310.445	19.71
310.912	24.01
311.378	23.71
311.845	19.11
312.311	21.61
312.777	24.01
313.244	23.71
313.71	28.81
314.176	19.81
314.642	20.81
315.109	15.41
315.575	28.81
316.041	34.71
316.507	23.71
316.973	31.01
317.439	27.11
317.905	28.71
318.371	30.51
318.837	20.31
319.303	21.41
319.769	24.61
320.235	23.41
320.701	24.91
321.167	21.41
321.633	22.81
322.099	23.61
322.564	29.31
323.03	27.81
323.496	29.21
323.962	24.41
324.427	23.11
324.893	40.41
325.359	30.41
325.824	29.31
326.29	22.91
326.755	31.21
327.221	29.31
327.686	29.31
328.152	39.11
328.617	35.31
329.083	37.51
329.548	38.81
330.014	41.01
330.479	34.51
330.944	31.61
331.41	35.61
331.875	33.31
332.34	34.01
332.805	31.31
333.271	36.71
333.736	26.81
334.201	39.21
334.666	42.71
335.131	43.71
335.596	39.51
336.061	41.41
336.526	33.41
336.991	37.01
337.456	46.91
337.921	35.51
338.386	31.71
338.851	40.41
339.316	41.21
339.781	34.31
340.246	44.11
340.711	43.21
341.175	40.11
341.64	40.31
342.105	39.21
342.569	53.21
343.034	48.11
343.499	44.91
343.963	48.41
344.428	54.71
344.893	49.51
345.357	55.01
345.822	52.71
346.286	52.81
346.751	57.31
347.215	51.81
347.679	52.21
348.144	67.61
348.608	65.81
349.073	57.41
349.537	56.71
350.001	62.91
350.465	66.41
350.93	75.21
351.394	71.01
351.858	60.71
352.322	74.81
352.786	65.41
353.25	76.21
353.715	81.51
354.179	73.81
354.643	93.61
355.107	93.81
355.571	84.91
356.035	79.91
356.498	91.91
356.962	91.21
357.426	98.31
357.89	90.91
358.354	73.51
358.818	64.21
359.281	72.21
359.745	63.71
360.209	63.71
360.673	63.31
361.136	67.91
361.6	75.71
362.064	73.21
362.527	79.21
362.991	84.21
363.454	72.61
363.918	67.51
364.381	70.21
364.845	75.41
365.308	80.51
365.772	76.81
366.235	83.21
366.698	72.21
367.162	84.31
367.625	73.21
368.088	76.41
368.552	83.31
369.015	80.71
369.478	85.61
369.941	89.11
370.404	75.81
370.867	89.61
371.331	90.21
371.794	89.51
372.257	83.81
372.72	90.81
373.183	85.21
373.646	85.41
374.109	88.81
374.572	90.51
375.035	93.11
375.497	99.41
375.96	101.01
376.423	91.91
376.886	103.01
377.349	102.91
377.811	92.71
378.274	95.91
378.737	93.91
379.199	96.31
379.662	97.81
380.125	99.01
380.587	97.81
381.05	102.41
381.512	110.11
381.975	114.21
382.437	105.71
382.9	103.71
383.362	112.01
383.825	120.31
384.287	119.51
384.75	110.01
385.212	117.61
385.674	114.01
386.136	122.71
386.599	112.81
387.061	111.81
387.523	111.61
387.985	124.81
388.447	120.61
388.91	120.81
389.372	118.91
389.834	119.71
390.296	119.11
390.758	120.51
391.22	121.01
391.682	126.31
392.144	136.21
392.606	130.51
393.068	127.61
393.529	141.11
393.991	133.11
394.453	122.51
394.915	121.21
395.377	128.11
395.838	127.21
396.3	133.31
396.762	132.51
397.224	132.71
397.685	124.91
398.147	122.41
398.608	128.41
399.07	126.41
399.531	129.71
399.993	138.31
400.454	149.61
400.916	137.71
401.377	137.41
401.839	144.51
402.3	140.41
402.762	161.31
403.223	171.61
403.684	167.01
404.145	157.11
404.607	146.61
405.068	152.41
405.529	151.91
405.99	172.01
406.451	157.71
406.913	161.71
407.374	154.71
407.835	157.71
408.296	158.91
408.757	162.71
409.218	172.51
409.679	164.71
410.14	167.71
410.601	170.91
411.062	174.71
411.522	170.51
411.983	172.81
412.444	156.71
412.905	173.21
413.366	177.41
413.826	191.21
414.287	210.71
414.748	256.91
415.208	245.11
415.669	211.71
416.13	204.91
416.59	198.31
417.051	215.11
417.511	222.91
417.972	237.31
418.432	251.21
418.893	292.61
419.353	256.61
419.814	200.01
420.274	178.01
420.734	178.61
421.195	186.01
421.655	180.11
422.115	191.81
422.576	197.41
423.036	188.61
423.496	200.21
423.956	203.91
424.416	226.71
424.876	250.31
425.336	252.01
425.797	256.41
426.257	240.51
426.717	226.81
427.177	216.91
427.637	210.91
428.097	226.81
428.556	227.81
429.016	256.71
429.476	242.31
429.936	246.51
430.396	254.91
430.856	267.61
431.315	285.71
431.775	319.21
432.235	336.51
432.694	327.91
433.154	325.61
433.614	342.31
434.073	302.01
434.533	268.21
434.993	244.31
435.452	255.91
435.912	269.01
436.371	261.31
436.83	246.71
437.29	238.11
437.749	232.01
438.209	223.41
438.668	245.01
439.127	259.21
439.587	241.31
440.046	227.31
440.505	239.41
440.964	248.41
441.424	270.51
441.883	267.81
442.342	235.31
442.801	216.61
443.26	214.31
443.719	215.91
444.178	210.21
444.637	204.51
445.096	211.71
445.555	210.91
446.014	213.61
446.473	222.81
446.932	223.01
447.391	215.81
447.849	231.21
448.308	213.51
448.767	210.61
449.226	227.41
449.685	231.21
450.143	241.41
450.602	226.01
451.061	219.11
451.519	225.81
451.978	224.71
452.436	226.31
452.895	224.81
453.353	237.01
453.812	228.31
454.27	225.51
454.729	223.91
455.187	229.31
455.646	225.61
456.104	232.51
456.562	244.11
457.021	247.61
457.479	242.11
457.937	250.21
458.395	247.41
458.854	232.51
459.312	243.91
459.77	252.91
460.228	238.51
460.686	237.91
461.144	235.51
461.602	238.91
462.06	233.31
462.518	253.91
462.976	245.91
463.434	252.41
463.892	248.51
464.35	255.81
464.808	271.81
465.266	252.91
465.724	262.51
466.181	266.51
466.639	258.91
467.097	272.91
467.555	285.81
468.012	287.61
468.47	290.31
468.928	300.81
469.385	316.01
469.843	317.31
470.3	323.81
470.758	336.81
471.215	338.91
471.673	369.21
472.13	368.51
472.588	372.51
473.045	342.01
473.503	355.11
473.96	369.01
474.417	375.51
474.875	394.41
475.332	429.71
475.789	428.51
476.246	434.01
476.704	454.01
477.161	460.21
477.618	466.31
478.075	503.81
478.532	547.11
478.989	599.51
479.446	678.01
479.903	674.31
480.36	705.51
480.817	753.81
481.274	830.61
481.731	917.51
482.188	985.21
482.645	1100.01
483.102	1170.41
483.558	1285.91
484.015	1325.91
484.472	1310.21
484.929	1276.51
485.385	1231.81
485.842	1215.71
486.299	1163.51
486.755	1095.01
487.212	942.61
487.668	832.91
488.125	771.71
488.582	696.51
489.038	687.11
489.494	650.01
489.951	631.51
490.407	607.31
490.864	591.91
491.32	596.21
491.776	595.21
492.233	591.71
492.689	561.21
493.145	557.21
493.602	547.91
494.058	558.41
494.514	560.51
494.97	575.51
495.426	576.61
495.882	560.31
496.338	558.61
496.794	563.51
497.251	551.01
497.707	562.71
498.163	572.51
498.618	573.71
499.074	579.61
499.53	599.91
499.986	591.31
500.442	579.81
500.898	560.11
501.354	564.21
501.809	561.91
502.265	564.71
502.721	566.91
503.177	580.11
503.632	564.81
504.088	581.61
504.543	593.61
504.999	607.01
505.455	587.61
505.91	570.41
506.366	579.01
506.821	570.01
507.277	568.01
507.732	579.71
508.187	574.61
508.643	583.11
509.098	589.01
509.553	600.21
510.009	600.21
510.464	607.91
510.919	620.21
511.375	626.61
511.83	632.71
512.285	649.71
512.74	680.21
513.195	682.31
513.65	676.61
514.105	683.21
514.56	689.61
515.015	703.11
515.47	711.11
515.925	701.61
516.38	698.71
516.835	703.81
517.29	702.81
517.745	698.91
518.2	685.31
518.655	672.91
519.109	665.81
519.564	662.21
520.019	654.61
520.474	650.91
520.928	644.41
521.383	639.41
521.838	635.91
522.292	631.01
522.747	625.31
523.201	620.61
523.656	623.21
524.11	625.71
524.565	621.91
525.019	606.91
525.474	618.01
525.928	617.11
526.382	610.91
526.837	613.01
527.291	625.31
527.745	604.41
528.2	609.71
528.654	615.91
529.108	601.01
529.562	610.41
530.016	610.41
530.47	596.31
530.925	595.81
531.379	605.51
531.833	615.91
532.287	605.31
532.741	609.21
533.195	607.31
533.649	614.51
534.103	621.41
534.556	610.91
535.01	611.81
535.464	616.91
535.918	624.21
536.372	620.31
536.826	611.71
537.279	601.01
537.733	612.41
538.187	612.81
538.64	603.61
539.094	621.81
539.548	627.21
540.001	622.51
540.455	617.21
540.908	632.21
541.362	630.21
541.815	645.31
542.269	654.11
542.722	651.41
543.175	658.71
543.629	655.51
544.082	676.61
544.536	671.41
544.989	678.91
545.442	688.71
545.895	687.51
546.349	679.61
546.802	675.51
547.255	685.71
547.708	690.11
548.161	695.11
548.614	682.41
549.067	702.91
549.52	702.01
549.973	697.21
550.426	687.71
550.879	671.71
551.332	669.71
551.785	675.91
552.238	676.51
552.691	694.61
553.144	695.91
553.596	715.21
554.049	723.41
554.502	747.91
554.955	762.41
555.407	770.91
555.86	761.31
556.313	745.61
556.765	728.51
557.218	741.11
557.67	720.11
558.123	725.71
558.576	723.01
559.028	736.31
559.48	736.81
559.933	732.11
560.385	706.81
560.838	681.11
561.29	659.41
561.742	656.81
562.195	643.31
562.647	635.41
563.099	650.01
563.551	646.51
564.004	647.61
564.456	638.41
564.908	626.61
565.36	616.81
565.812	603.61
566.264	599.51
566.716	591.41
567.168	578.51
567.62	580.61
568.072	569.91
568.524	561.41
568.976	565.51
569.428	559.31
569.88	563.81
570.332	562.81
570.784	557.71
571.235	559.41
571.687	563.51
572.139	568.11
572.59	573.01
573.042	580.91
573.494	578.81
573.945	579.51
574.397	548.81
574.849	561.51
575.3	556.31
575.752	556.51
576.203	550.41
576.655	562.81
577.106	538.21
577.557	536.21
578.009	538.21
578.46	536.91
578.912	525.31
579.363	532.41
579.814	521.11
580.265	528.81
580.717	529.01
581.168	535.71
581.619	538.61
582.07	543.21
582.521	539.31
582.972	536.81
583.423	540.21
583.875	536.61
584.326	536.01
584.777	552.61
585.227	564.01
585.678	574.01
586.129	593.01
586.58	607.61
587.031	618.61
587.482	645.81
587.933	673.81
588.384	662.21
588.834	627.71
589.285	617.31
589.736	614.81
590.186	610.01
590.637	611.21
591.088	589.21
591.538	570.51
591.989	578.31
592.439	570.11
592.89	563.91
593.34	549.91
593.791	554.11
594.241	547.31
594.692	554.11
595.142	544.81
595.593	543.81
596.043	541.11
596.493	551.41
596.943	546.51
597.394	564.11
597.844	547.31
598.294	559.61
598.744	589.61
599.195	607.11
599.645	630.31
600.095	664.31
600.545	705.01
600.995	742.81
601.445	794.71
601.895	842.61
602.345	878.31
602.795	870.61
603.245	828.21
603.695	786.51
604.145	754.01
604.594	715.31
605.044	680.21
605.494	626.11
605.944	588.31
606.393	566.51
606.843	560.61
607.293	560.21
607.743	559.11
608.192	561.91
608.642	572.91
609.091	573.01
609.541	570.41
609.99	573.91
610.44	569.31
610.889	547.61
611.339	533.41
611.788	520.51
612.238	536.41
612.687	539.61
613.136	530.81
613.586	532.51
614.035	531.91
614.484	535.01
614.933	531.01
615.383	530.21
615.832	531.21
616.281	523.21
616.73	506.61
617.179	496.41
617.628	497.51
618.077	470.91
618.526	472.21
618.975	461.81
619.424	467.51
619.873	454.21
620.322	461.61
620.771	453.81
621.22	455.41
621.669	449.11
622.118	438.51
622.567	427.21
623.015	426.51
623.464	420.41
623.913	418.01
624.361	426.71
624.81	420.01
625.259	411.61
625.707	418.11
626.156	414.31
626.604	431.31
627.053	418.11
627.501	426.41
627.95	420.31
628.398	430.41
628.847	413.31
629.295	420.61
629.744	430.21
630.192	420.81
630.64	416.41
631.089	399.91
631.537	402.41
631.985	390.11
632.433	395.01
632.881	395.71
633.33	397.21
633.778	377.01
634.226	385.91
634.674	406.41
635.122	400.31
635.57	410.71
636.018	410.31
636.466	409.11
636.914	405.81
637.362	415.51
637.81	424.91
638.258	432.41
638.705	423.21
639.153	440.41
639.601	453.01
640.049	469.81
640.497	498.61
640.944	511.91
641.392	475.81
641.84	454.21
642.287	428.51
642.735	406.61
643.182	407.71
643.63	414.01
644.078	414.71
644.525	421.41
644.973	429.71
645.42	429.41
645.867	447.71
646.315	461.21
646.762	473.21
647.21	496.71
647.657	501.41
648.104	528.51
648.551	546.11
648.999	582.21
649.446	630.31
649.893	680.61
650.34	778.61
650.787	926.71
651.234	1123.61
651.682	1434.01
652.129	1922.81
652.576	2716.81
653.023	3958.81
653.47	5524.01
653.917	6926.01
654.363	8150.31
654.81	9231.51
655.257	8775.21
655.704	5802.51
656.151	3453.71
656.598	2261.21
657.044	1618.31
657.491	1251.01
657.938	1009.41
658.385	844.41
658.831	736.31
659.278	668.21
659.724	584.51
660.171	547.91
660.618	508.91
661.064	479.41
661.511	467.01
661.957	448.01
662.404	438.51
662.85	438.41
663.296	425.01
663.743	402.31
664.189	380.61
664.635	381.91
665.082	372.21
665.528	373.81
665.974	370.01
666.42	362.81
666.867	353.91
667.313	337.01
667.759	331.21
668.205	319.01
668.651	321.41
669.097	321.01
669.543	307.11
669.989	318.31
670.435	321.81
670.881	320.11
671.327	317.81
671.773	337.21
672.219	351.91
672.665	395.31
673.11	418.81
673.556	453.81
674.002	494.01
674.448	481.51
674.893	408.31
675.339	342.01
675.785	314.91
676.23	306.21
676.676	287.61
677.122	275.41
677.567	261.81
678.013	266.11
678.458	260.91
678.904	259.61
679.349	244.81
679.794	256.41
680.24	251.11
680.685	247.91
681.131	246.51
681.576	253.21
682.021	258.21
682.466	243.41
682.912	246.91
683.357	253.71
683.802	269.51
684.247	291.81
684.692	328.61
685.137	352.11
685.583	388.61
686.028	415.31
686.473	382.11
686.918	329.71
687.363	297.61
687.807	283.01
688.252	263.51
688.697	258.61
689.142	240.61
689.587	235.31
690.032	230.91
690.477	248.81
690.921	248.11
691.366	272.61
691.811	281.11
692.255	303.91
692.7	335.41
693.145	350.41
693.589	480.41
694.034	783.31
694.478	1105.91
694.923	1287.61
695.367	1702.51
695.812	896.51
696.256	362.51
696.701	261.81
697.145	247.61
697.59	229.51
698.034	222.21
698.478	237.91
698.922	228.01
699.367	232.11
699.811	232.61
700.255	245.21
700.699	268.21
701.143	291.91
701.588	333.81
702.032	364.01
702.476	365.31
702.92	349.31
703.364	348.61
703.808	445.71
704.252	715.01
704.696	1029.41
705.14	1232.21
705.584	1622.41
706.027	783.71
706.471	384.11
706.915	281.21
707.359	257.01
707.803	232.81
708.246	218.51
708.69	226.71
709.134	217.21
709.577	225.21
710.021	231.71
710.465	219.81
710.908	218.91
711.352	212.51
711.795	218.31
712.239	249.41
712.682	260.81
713.126	285.81
713.569	322.21
714.012	255.61
714.456	219.41
714.899	200.61
715.342	191.61
715.786	181.71
716.229	181.21
716.672	187.31
717.115	169.51
717.558	167.01
718.002	178.71
718.445	179.41
718.888	204.71
719.331	202.51
719.774	215.81
720.217	218.61
720.66	208.61
721.103	189.61
721.546	180.31
721.989	177.61
722.432	165.21
722.874	170.01
723.317	160.11
723.76	160.41
724.203	173.81
724.645	214.11
725.088	307.91
725.531	400.71
725.974	468.31
726.416	400.31
726.859	217.91
727.301	179.31
727.744	163.81
728.187	163.61
728.629	164.41
729.071	175.71
729.514	180.71
729.956	185.91
730.399	200.11
730.841	212.11
731.283	193.71
731.726	190.41
732.168	180.11
732.61	189.71
733.053	199.41
733.495	219.21
733.937	244.51
734.379	275.81
734.821	307.11
735.263	376.71
735.705	569.01
736.148	1082.21
736.59	1832.11
737.032	2313.81
737.474	1898.01
737.916	601.81
738.357	304.91
738.799	239.51
739.241	208.21
739.683	202.11
740.125	209.01
740.567	218.31
741.008	228.11
741.45	229.51
741.892	226.31
742.334	254.41
742.775	265.51
743.217	261.61
743.658	194.81
744.1	185.11
744.542	186.21
744.983	223.11
745.425	264.41
745.866	262.51
746.307	205.51
746.749	190.41
747.19	222.31
747.632	312.21
748.073	590.31
748.514	1281.01
748.956	2074.01
749.397	2589.81
749.838	2164.61
750.279	2270.31
750.72	1131.41
751.162	404.81
751.603	230.31
752.044	185.51
752.485	150.81
752.926	146.71
753.367	144.11
753.808	134.71
754.249	132.81
754.69	124.01
755.131	127.81
755.572	122.31
756.013	125.51
756.453	120.91
756.894	125.81
757.335	132.61
757.776	135.91
758.216	140.71
758.657	137.41
759.098	136.71
759.538	159.21
759.979	187.61
760.42	256.81
760.86	483.71
761.301	1262.81
761.741	3178.81
762.182	4994.71
762.622	3562.21
763.063	994.81
763.503	395.81
763.943	238.51
764.384	197.21
764.824	180.91
