Data from 20171114-ORNL-Ar_H_NY_Subt18_08-04-04-246.txt Node
Date: Tue Nov 14 08:04:04 EST 2017
User: Ender
Spectrometer: HR+D1039
Trigger mode: 0
Integration Time (sec): 2.730000E-2
Scans to average: 10
Electric dark correction enabled: true
Nonlinearity correction enabled: false
Boxcar width: 0
XAxis mode: Wavelengths
Number of Pixels in Spectrum: 2048
>>>>>Begin Spectral Data<<<<<
187.836	-1.99
188.309	-1.99
188.782	-1.99
189.255	3.41
189.728	1.01
190.201	4.31
190.674	2.41
191.147	1.41
191.619	-8.79
192.092	1.21
192.565	5.61
193.038	-5.19
193.511	2.91
193.984	5.31
194.456	-3.69
194.929	-0.59
195.402	-3.19
195.874	-4.09
196.347	-2.19
196.82	-6.29
197.292	3.41
197.765	-1.59
198.237	-5.19
198.71	2.61
199.182	0.81
199.655	4.41
200.127	-2.19
200.6	5.01
201.072	-3.79
201.544	-5.09
202.017	-4.19
202.489	2.11
202.961	-1.69
203.433	-5.39
203.906	-2.69
204.378	-8.59
204.85	-5.49
205.322	-8.69
205.794	-0.49
206.266	-2.59
206.739	-15.59
207.211	-4.99
207.683	-9.39
208.155	-1.89
208.627	-11.99
209.099	-3.39
209.57	-3.79
210.042	1.91
210.514	0.01
210.986	0.21
211.458	-10.09
211.93	-5.79
212.402	2.61
212.873	-6.79
213.345	-6.29
213.817	-16.59
214.288	-6.89
214.76	-12.59
215.232	-4.99
215.703	-5.19
216.175	-3.99
216.646	-6.29
217.118	-9.09
217.589	-3.99
218.061	-3.39
218.532	-1.19
219.004	-7.09
219.475	-4.69
219.946	-3.29
220.418	-4.79
220.889	1.21
221.36	1.71
221.832	-2.59
222.303	-8.19
222.774	0.31
223.245	-9.79
223.717	-2.39
224.188	-2.79
224.659	-5.29
225.13	-3.39
225.601	-0.19
226.072	-1.59
226.543	-4.99
227.014	-1.49
227.485	-4.69
227.956	-11.99
228.427	-8.09
228.898	0.21
229.369	2.11
229.839	-5.69
230.31	-8.69
230.781	1.41
231.252	-4.99
231.722	-3.99
232.193	-8.79
232.664	-2.59
233.135	-1.59
233.605	3.81
234.076	-7.99
234.546	3.71
235.017	1.51
235.487	4.21
235.958	-5.69
236.428	-4.29
236.899	-4.39
237.369	2.31
237.84	-2.99
238.31	5.71
238.78	-2.19
239.251	-6.29
239.721	-3.69
240.191	1.01
240.662	1.21
241.132	1.21
241.602	-6.19
242.072	-3.19
242.542	5.11
243.013	3.21
243.483	2.31
243.953	-2.59
244.423	-0.69
244.893	0.61
245.363	3.11
245.833	2.71
246.303	1.01
246.773	4.71
247.243	4.61
247.712	-3.09
248.182	7.81
248.652	2.41
249.122	-9.49
249.592	9.11
250.061	9.91
250.531	29.01
251.001	1.91
251.471	11.71
251.94	14.61
252.41	2.51
252.879	-5.69
253.349	7.51
253.818	6.91
254.288	-0.99
254.757	-4.59
255.227	-0.69
255.696	-2.89
256.166	-0.29
256.635	4.41
257.105	2.71
257.574	2.61
258.043	6.41
258.513	7.11
258.982	9.11
259.451	6.21
259.92	9.61
260.389	8.11
260.859	14.81
261.328	7.21
261.797	9.41
262.266	6.91
262.735	9.21
263.204	-0.09
263.673	-4.59
264.142	5.01
264.611	-2.89
265.08	-2.69
265.549	-1.99
266.018	2.91
266.487	-1.39
266.955	-0.19
267.424	-2.49
267.893	5.21
268.362	-5.59
268.83	-1.39
269.299	4.91
269.768	3.11
270.236	3.31
270.705	-5.69
271.174	2.61
271.642	2.41
272.111	-3.19
272.579	4.31
273.048	10.21
273.516	9.71
273.985	18.41
274.453	12.01
274.922	8.81
275.39	10.31
275.858	-2.59
276.327	8.91
276.795	10.71
277.263	1.21
277.731	15.61
278.2	25.01
278.668	36.11
279.136	28.61
279.604	12.81
280.072	9.81
280.54	7.41
281.008	3.21
281.477	11.31
281.945	8.91
282.413	8.61
282.881	10.31
283.348	0.81
283.816	15.61
284.284	8.11
284.752	15.21
285.22	7.11
285.688	8.81
286.156	8.71
286.623	31.31
287.091	29.41
287.559	17.81
288.026	10.51
288.494	9.51
288.962	0.91
289.429	3.11
289.897	10.81
290.364	6.41
290.832	11.21
291.3	9.61
291.767	6.41
292.234	20.71
292.702	3.91
293.169	12.91
293.637	17.41
294.104	15.21
294.571	4.01
295.039	-0.19
295.506	9.61
295.973	11.71
296.44	9.71
296.908	9.81
297.375	10.91
297.842	13.01
298.309	11.21
298.776	4.61
299.243	15.31
299.71	2.41
300.177	11.71
300.644	14.91
301.111	12.41
301.578	16.01
302.045	7.11
302.512	21.21
302.979	13.21
303.446	10.11
303.913	9.11
304.379	9.01
304.846	26.31
305.313	14.71
305.78	11.31
306.246	15.71
306.713	19.21
307.18	18.41
307.646	19.61
308.113	19.81
308.579	12.61
309.046	22.31
309.512	22.71
309.979	13.11
310.445	17.51
310.912	20.01
311.378	20.91
311.845	19.01
312.311	20.21
312.777	23.21
313.244	17.31
313.71	26.41
314.176	19.41
314.642	18.21
315.109	24.01
315.575	13.71
316.041	28.81
316.507	24.11
316.973	30.91
317.439	25.91
317.905	26.91
318.371	28.31
318.837	24.31
319.303	26.01
319.769	19.61
320.235	25.41
320.701	29.81
321.167	29.31
321.633	31.31
322.099	25.81
322.564	34.91
323.03	23.21
323.496	26.01
323.962	32.11
324.427	24.91
324.893	30.51
325.359	30.01
325.824	21.21
326.29	30.31
326.755	28.21
327.221	28.31
327.686	28.11
328.152	35.51
328.617	32.11
329.083	34.91
329.548	41.51
330.014	31.21
330.479	26.51
330.944	36.01
331.41	34.21
331.875	34.71
332.34	32.81
332.805	30.31
333.271	36.01
333.736	30.21
334.201	39.11
334.666	33.11
335.131	42.51
335.596	43.21
336.061	36.51
336.526	31.11
336.991	40.91
337.456	43.01
337.921	37.01
338.386	37.41
338.851	35.71
339.316	38.61
339.781	36.41
340.246	45.31
340.711	38.61
341.175	36.01
341.64	33.61
342.105	42.71
342.569	36.61
343.034	44.01
343.499	42.61
343.963	45.11
344.428	52.31
344.893	48.31
345.357	52.61
345.822	48.21
346.286	50.31
346.751	62.91
347.215	57.21
347.679	58.51
348.144	71.21
348.608	65.11
349.073	56.51
349.537	56.61
350.001	59.51
350.465	60.81
350.93	57.71
351.394	64.91
351.858	52.71
352.322	66.61
352.786	59.31
353.25	78.01
353.715	80.11
354.179	69.01
354.643	89.71
355.107	94.21
355.571	77.01
356.035	85.51
356.498	89.31
356.962	86.11
357.426	100.01
357.89	88.01
358.354	70.11
358.818	68.51
359.281	57.11
359.745	61.31
360.209	62.01
360.673	55.31
361.136	68.61
361.6	62.11
362.064	69.71
362.527	64.71
362.991	77.41
363.454	64.21
363.918	65.81
364.381	61.61
364.845	73.01
365.308	64.41
365.772	67.91
366.235	66.91
366.698	67.61
367.162	66.01
367.625	74.51
368.088	64.41
368.552	75.51
369.015	74.31
369.478	82.01
369.941	84.41
370.404	74.81
370.867	80.01
371.331	85.71
371.794	89.81
372.257	89.91
372.72	93.61
373.183	90.81
373.646	85.91
374.109	80.01
374.572	91.11
375.035	88.31
375.497	94.11
375.96	85.51
376.423	89.11
376.886	91.71
377.349	92.11
377.811	84.41
378.274	81.51
378.737	82.11
379.199	95.41
379.662	98.11
380.125	100.51
380.587	94.61
381.05	102.81
381.512	105.21
381.975	115.71
382.437	105.61
382.9	111.51
383.362	111.21
383.825	117.51
384.287	115.01
384.75	116.61
385.212	122.11
385.674	114.31
386.136	116.91
386.599	102.91
387.061	108.01
387.523	108.71
387.985	111.91
388.447	119.81
388.91	116.01
389.372	131.61
389.834	129.01
390.296	120.71
390.758	124.31
391.22	138.41
391.682	165.01
392.144	229.91
392.606	181.91
393.068	140.61
393.529	142.51
393.991	129.41
394.453	126.91
394.915	128.41
395.377	155.61
395.838	175.41
396.3	131.41
396.762	126.01
397.224	115.11
397.685	111.11
398.147	113.31
398.608	118.31
399.07	110.91
399.531	114.71
399.993	124.51
400.454	130.71
400.916	129.21
401.377	126.71
401.839	128.11
402.3	134.61
402.762	143.81
403.223	151.91
403.684	144.91
404.145	141.21
404.607	148.01
405.068	143.11
405.529	145.41
405.99	159.61
406.451	144.91
406.913	148.31
407.374	138.01
407.835	136.41
408.296	144.31
408.757	144.91
409.218	159.71
409.679	151.91
410.14	159.31
410.601	154.51
411.062	156.81
411.522	169.11
411.983	162.31
412.444	151.31
412.905	152.51
413.366	165.51
413.826	177.31
414.287	192.51
414.748	234.21
415.208	216.71
415.669	185.71
416.13	189.31
416.59	180.11
417.051	188.21
417.511	190.91
417.972	212.81
418.432	222.61
418.893	254.31
419.353	229.41
419.814	177.41
420.274	172.21
420.734	162.51
421.195	171.91
421.655	170.41
422.115	169.31
422.576	167.71
423.036	177.91
423.496	183.11
423.956	197.21
424.416	205.01
424.876	237.11
425.336	231.01
425.797	238.11
426.257	224.61
426.717	210.11
427.177	202.61
427.637	195.61
428.097	206.21
428.556	211.71
429.016	237.51
429.476	230.11
429.936	247.31
430.396	234.11
430.856	259.71
431.315	271.71
431.775	302.21
432.235	327.91
432.694	300.31
433.154	302.91
433.614	316.41
434.073	284.81
434.533	246.11
434.993	241.91
435.452	246.71
435.912	244.61
436.371	243.71
436.83	240.81
437.29	231.61
437.749	212.71
438.209	209.81
438.668	224.41
439.127	229.11
439.587	223.51
440.046	212.51
440.505	227.01
440.964	231.91
441.424	259.91
441.883	248.41
442.342	225.41
442.801	197.01
443.26	186.81
443.719	184.31
444.178	190.51
444.637	186.71
445.096	189.71
445.555	195.11
446.014	197.11
446.473	204.11
446.932	204.01
447.391	197.51
447.849	200.91
448.308	192.81
448.767	198.01
449.226	207.21
449.685	206.71
450.143	222.01
450.602	203.21
451.061	202.21
451.519	195.91
451.978	206.41
452.436	208.81
452.895	207.31
453.353	216.91
453.812	215.11
454.27	212.91
454.729	216.61
455.187	207.21
455.646	208.81
456.104	217.31
456.562	225.61
457.021	233.01
457.479	223.11
457.937	231.51
458.395	227.41
458.854	211.51
459.312	221.31
459.77	229.21
460.228	219.61
460.686	207.91
461.144	218.71
461.602	210.51
462.06	216.71
462.518	217.21
462.976	221.71
463.434	226.91
463.892	223.51
464.35	245.71
464.808	250.21
465.266	230.91
465.724	239.01
466.181	233.91
466.639	243.01
467.097	261.51
467.555	264.01
468.012	267.91
468.47	273.01
468.928	278.11
469.385	295.81
469.843	305.51
470.3	299.61
470.758	308.21
471.215	313.91
471.673	345.11
472.13	344.61
472.588	354.51
473.045	327.91
473.503	331.51
473.96	343.51
474.417	356.01
474.875	368.71
475.332	403.01
475.789	399.41
476.246	400.11
476.704	414.71
477.161	440.61
477.618	449.61
478.075	475.61
478.532	525.91
478.989	579.11
479.446	663.81
479.903	659.01
480.36	698.81
480.817	739.31
481.274	832.51
481.731	924.41
482.188	1002.11
482.645	1121.91
483.102	1217.91
483.558	1330.81
484.015	1382.51
484.472	1373.21
484.929	1344.71
485.385	1283.51
485.842	1262.51
486.299	1182.41
486.755	1110.41
487.212	951.61
487.668	815.01
488.125	738.81
488.582	680.81
489.038	652.11
489.494	621.71
489.951	590.21
490.407	574.51
490.864	566.71
491.32	562.41
491.776	555.31
492.233	559.01
492.689	535.31
493.145	527.31
493.602	516.21
494.058	528.41
494.514	526.51
494.97	544.21
495.426	543.61
495.882	530.51
496.338	530.51
496.794	533.21
497.251	526.71
497.707	549.01
498.163	537.91
498.618	546.21
499.074	555.11
499.53	574.41
499.986	576.21
500.442	552.21
500.898	545.61
501.354	543.71
501.809	551.91
502.265	549.91
502.721	564.51
503.177	579.91
503.632	563.21
504.088	576.61
504.543	599.91
504.999	604.81
505.455	563.21
505.91	552.41
506.366	552.61
506.821	549.11
507.277	537.41
507.732	536.81
508.187	536.41
508.643	547.61
509.098	555.31
509.553	568.51
510.009	571.31
510.464	567.91
510.919	586.71
511.375	592.01
511.83	601.71
512.285	624.51
512.74	646.21
513.195	665.81
513.65	648.71
514.105	656.01
514.56	665.21
515.015	678.51
515.47	692.41
515.925	668.11
516.38	677.21
516.835	679.01
517.29	672.11
517.745	670.61
518.2	652.01
518.655	637.11
519.109	640.01
519.564	642.31
520.019	607.51
520.474	615.81
520.928	617.11
521.383	619.31
521.838	611.31
522.292	607.61
522.747	609.71
523.201	602.31
523.656	597.21
524.11	587.41
524.565	591.51
525.019	580.51
525.474	602.61
525.928	588.41
526.382	584.21
526.837	593.01
527.291	600.51
527.745	599.91
528.2	587.91
528.654	582.81
529.108	582.81
529.562	575.91
530.016	577.51
530.47	576.91
530.925	581.11
531.379	590.31
531.833	594.91
532.287	591.91
532.741	583.11
533.195	589.61
533.649	594.51
534.103	604.01
534.556	600.81
535.01	596.81
535.464	600.41
535.918	613.51
536.372	603.11
536.826	595.51
537.279	593.41
537.733	599.21
538.187	599.51
538.64	592.01
539.094	603.81
539.548	617.21
540.001	601.61
540.455	597.41
540.908	615.91
541.362	611.91
541.815	631.11
542.269	633.21
542.722	641.91
543.175	647.31
543.629	660.31
544.082	657.71
544.536	651.11
544.989	649.91
545.442	666.71
545.895	660.61
546.349	658.81
546.802	664.21
547.255	667.81
547.708	676.91
548.161	682.31
548.614	687.41
549.067	690.71
549.52	682.91
549.973	667.91
550.426	677.61
550.879	657.21
551.332	664.81
551.785	665.61
552.238	663.31
552.691	673.91
553.144	677.21
553.596	702.21
554.049	707.91
554.502	735.51
554.955	757.71
555.407	746.81
555.86	742.51
556.313	729.41
556.765	729.21
557.218	726.01
557.67	728.21
558.123	719.81
558.576	717.11
559.028	717.61
559.48	721.51
559.933	721.01
560.385	693.91
560.838	671.81
561.29	639.21
561.742	637.91
562.195	627.51
562.647	623.91
563.099	625.01
563.551	629.71
564.004	636.41
564.456	631.71
564.908	620.71
565.36	606.41
565.812	597.11
566.264	586.21
566.716	590.61
567.168	583.91
567.62	582.71
568.072	571.61
568.524	567.81
568.976	570.61
569.428	537.81
569.88	545.41
570.332	560.51
570.784	548.71
571.235	552.41
571.687	557.11
572.139	566.21
572.59	571.51
573.042	571.81
573.494	570.71
573.945	573.41
574.397	551.11
574.849	550.81
575.3	553.91
575.752	540.71
576.203	544.11
576.655	547.01
577.106	542.61
577.557	525.71
578.009	532.21
578.46	524.51
578.912	518.41
579.363	529.51
579.814	530.31
580.265	518.91
580.717	532.81
581.168	528.11
581.619	547.11
582.07	538.41
582.521	538.51
582.972	529.11
583.423	537.31
583.875	548.51
584.326	555.91
584.777	584.71
585.227	650.41
585.678	717.31
586.129	775.21
586.58	837.71
587.031	910.61
587.482	1046.11
587.933	1198.11
588.384	1033.71
588.834	785.51
589.285	629.21
589.736	624.11
590.186	613.21
590.637	605.21
591.088	587.01
591.538	583.81
591.989	578.61
592.439	577.91
592.89	561.61
593.34	555.11
593.791	558.61
594.241	550.71
594.692	551.71
595.142	553.31
595.593	549.61
596.043	562.21
596.493	562.11
596.943	553.51
597.394	561.61
597.844	562.01
598.294	568.11
598.744	583.91
599.195	603.11
599.645	637.21
600.095	659.01
600.545	708.91
600.995	741.81
601.445	784.71
601.895	840.11
602.345	889.81
602.795	871.31
603.245	836.31
603.695	795.91
604.145	749.21
604.594	717.31
605.044	672.71
605.494	617.21
605.944	585.41
606.393	570.91
606.843	569.61
607.293	575.71
607.743	570.11
608.192	577.91
608.642	580.01
609.091	582.81
609.541	583.31
609.99	580.61
610.44	582.51
610.889	558.51
611.339	541.71
611.788	529.51
612.238	531.21
612.687	552.01
613.136	553.01
613.586	566.11
614.035	566.71
614.484	575.71
614.933	582.71
615.383	580.71
615.832	570.01
616.281	551.51
616.73	518.11
617.179	511.71
617.628	509.01
618.077	487.51
618.526	477.21
618.975	470.01
619.424	474.31
619.873	466.71
620.322	473.21
620.771	461.61
621.22	459.41
621.669	459.91
622.118	440.91
622.567	438.21
623.015	431.21
623.464	433.31
623.913	413.01
624.361	421.21
624.81	422.31
625.259	423.81
625.707	423.21
626.156	425.81
626.604	442.41
627.053	435.01
627.501	425.21
627.95	422.31
628.398	443.31
628.847	440.81
629.295	427.01
629.744	434.61
630.192	434.11
630.64	441.41
631.089	420.51
631.537	433.21
631.985	434.71
632.433	438.81
632.881	435.81
633.33	470.31
633.778	458.91
634.226	426.41
634.674	416.41
635.122	423.71
635.57	446.31
636.018	460.21
636.466	441.71
636.914	414.11
637.362	428.01
637.81	432.71
638.258	427.51
638.705	427.11
639.153	454.11
639.601	471.21
640.049	482.51
640.497	509.41
640.944	520.01
641.392	483.31
641.84	467.51
642.287	438.21
642.735	425.01
643.182	433.11
643.63	426.71
644.078	434.81
644.525	444.71
644.973	448.01
645.42	452.01
645.867	468.11
646.315	476.51
646.762	492.81
647.21	516.61
647.657	526.21
648.104	562.01
648.551	578.71
648.999	624.31
649.446	673.31
649.893	741.21
650.34	841.41
650.787	1014.11
651.234	1244.61
651.682	1617.11
652.129	2221.91
652.576	3193.91
653.023	4692.51
653.47	6592.11
653.917	8291.71
654.363	9768.81
654.81	11108.41
655.257	10585.61
655.704	6853.11
656.151	3975.21
656.598	2570.11
657.044	1815.21
657.491	1396.01
657.938	1110.41
658.385	932.71
658.831	805.31
659.278	723.51
659.724	638.31
660.171	584.61
660.618	528.21
661.064	509.11
661.511	487.71
661.957	474.61
662.404	470.11
662.85	472.91
663.296	444.21
663.743	409.21
664.189	401.81
664.635	400.31
665.082	393.41
665.528	390.71
665.974	383.41
666.42	379.61
666.867	369.31
667.313	352.21
667.759	352.41
668.205	350.21
668.651	365.51
669.097	362.01
669.543	368.91
669.989	354.61
670.435	330.31
670.881	335.51
671.327	331.51
671.773	347.81
672.219	360.91
672.665	400.61
673.11	425.01
673.556	463.91
674.002	507.81
674.448	486.21
674.893	407.11
675.339	350.51
675.785	331.11
676.23	313.61
676.676	286.31
677.122	280.31
677.567	276.61
678.013	272.81
678.458	265.61
678.904	269.81
679.349	259.21
679.794	257.11
680.24	255.61
680.685	252.01
681.131	240.91
681.576	263.11
682.021	258.21
682.466	251.81
682.912	254.01
683.357	258.11
683.802	275.91
684.247	300.41
684.692	321.41
685.137	362.21
685.583	391.81
686.028	421.01
686.473	385.71
686.918	323.21
687.363	304.81
687.807	283.91
688.252	267.61
688.697	257.71
689.142	246.71
689.587	237.61
690.032	234.91
690.477	251.71
690.921	244.21
691.366	281.51
691.811	298.21
692.255	314.31
692.7	336.41
693.145	360.51
693.589	496.01
694.034	809.51
694.478	1118.91
694.923	1301.61
695.367	1733.01
695.812	910.71
696.256	372.61
696.701	276.21
697.145	253.01
697.59	244.11
698.034	232.01
698.478	239.71
698.922	238.51
699.367	245.31
699.811	251.01
700.255	254.61
700.699	278.71
701.143	307.21
701.588	342.41
702.032	376.41
702.476	383.71
702.92	360.51
703.364	351.81
703.808	451.71
704.252	724.71
704.696	1050.71
705.14	1248.31
705.584	1631.41
706.027	800.61
706.471	391.61
706.915	290.31
707.359	257.01
707.803	230.61
708.246	222.51
708.69	228.61
709.134	233.21
709.577	229.21
710.021	230.81
710.465	222.81
710.908	221.51
711.352	217.51
711.795	227.91
712.239	253.61
712.682	273.91
713.126	304.01
713.569	346.71
714.012	275.31
714.456	232.71
714.899	218.21
715.342	202.31
715.786	191.71
716.229	190.21
716.672	189.01
717.115	178.31
717.558	182.71
718.002	183.81
718.445	197.61
718.888	209.61
719.331	211.31
719.774	220.01
720.217	223.81
720.66	210.21
721.103	191.81
721.546	180.41
721.989	179.71
722.432	170.31
722.874	177.51
723.317	166.61
723.76	172.31
724.203	189.51
724.645	226.31
725.088	318.21
725.531	416.11
725.974	478.31
726.416	406.81
726.859	226.71
727.301	180.91
727.744	166.51
728.187	173.11
728.629	173.71
729.071	176.61
729.514	185.91
729.956	193.61
730.399	204.41
730.841	206.01
731.283	196.41
731.726	191.51
732.168	187.91
732.61	185.51
733.053	207.51
733.495	225.51
733.937	249.91
734.379	280.71
734.821	315.91
735.263	389.01
735.705	587.91
736.148	1116.81
736.59	1874.31
737.032	2337.01
737.474	1894.71
737.916	601.01
738.357	313.01
738.799	227.91
739.241	215.11
739.683	205.51
740.125	214.61
740.567	218.21
741.008	233.01
741.45	234.61
741.892	232.61
742.334	253.01
742.775	266.11
743.217	260.51
743.658	191.51
744.1	181.21
744.542	189.61
744.983	226.31
745.425	263.31
745.866	255.81
746.307	203.01
746.749	196.41
747.19	229.51
747.632	318.31
748.073	607.31
748.514	1308.81
748.956	2114.11
749.397	2650.61
749.838	2194.61
750.279	2252.21
750.72	1146.11
751.162	407.21
751.603	231.91
752.044	183.71
752.485	159.01
752.926	155.61
753.367	150.11
753.808	141.61
754.249	130.71
754.69	131.81
755.131	136.81
755.572	134.31
756.013	125.11
756.453	123.41
756.894	135.21
757.335	137.71
757.776	143.21
758.216	141.01
758.657	140.01
759.098	144.71
759.538	162.21
759.979	191.11
760.42	267.31
760.86	483.31
761.301	1270.41
761.741	3212.11
762.182	5026.61
762.622	3541.91
763.063	991.51
763.503	401.31
763.943	254.81
764.384	248.91
