Data from 20171114-ORNL-Ar_H_NY_Subt18_08-04-14-892.txt Node
Date: Tue Nov 14 08:04:14 EST 2017
User: Ender
Spectrometer: HR+D1039
Trigger mode: 0
Integration Time (sec): 2.730000E-2
Scans to average: 10
Electric dark correction enabled: true
Nonlinearity correction enabled: false
Boxcar width: 0
XAxis mode: Wavelengths
Number of Pixels in Spectrum: 2048
>>>>>Begin Spectral Data<<<<<
187.836	-1.87
188.309	-1.87
188.782	-1.87
189.255	1.13
189.728	-0.77
190.201	11.33
190.674	1.23
191.147	3.03
191.619	-6.57
192.092	3.33
192.565	0.83
193.038	-3.67
193.511	-0.87
193.984	-1.87
194.456	1.23
194.929	1.53
195.402	-4.17
195.874	-3.87
196.347	-3.87
196.82	-2.67
197.292	8.83
197.765	2.53
198.237	-6.17
198.71	3.33
199.182	-2.37
199.655	2.53
200.127	-0.17
200.6	-1.87
201.072	-6.27
201.544	-6.27
202.017	-2.97
202.489	1.43
202.961	0.73
203.433	3.73
203.906	-5.47
204.378	-7.57
204.85	2.13
205.322	-2.97
205.794	1.23
206.266	-4.27
206.739	-4.47
207.211	4.13
207.683	-7.77
208.155	-3.87
208.627	-3.37
209.099	-2.97
209.57	-11.47
210.042	3.33
210.514	-0.77
210.986	0.63
211.458	-4.57
211.93	-1.87
212.402	4.63
212.873	-3.17
213.345	-2.57
213.817	-5.67
214.288	-2.67
214.76	-6.67
215.232	-2.97
215.703	0.53
216.175	2.43
216.646	-4.47
217.118	-5.37
217.589	-5.27
218.061	-3.17
218.532	0.33
219.004	-2.87
219.475	0.93
219.946	-5.27
220.418	-6.07
220.889	3.33
221.36	4.33
221.832	-4.37
222.303	-9.47
222.774	0.13
223.245	-5.57
223.717	-5.67
224.188	-3.27
224.659	-5.57
225.13	-7.97
225.601	-6.07
226.072	-4.37
226.543	-0.07
227.014	2.63
227.485	-2.77
227.956	-4.47
228.427	3.53
228.898	2.83
229.369	7.53
229.839	-3.17
230.31	-0.77
230.781	4.33
231.252	-1.57
231.722	-4.87
232.193	4.63
232.664	-0.07
233.135	6.43
233.605	0.03
234.076	-8.47
234.546	2.83
235.017	1.93
235.487	6.53
235.958	4.03
236.428	-0.87
236.899	9.13
237.369	5.93
237.84	0.03
238.31	10.03
238.78	8.23
239.251	-2.67
239.721	5.33
240.191	-3.47
240.662	2.23
241.132	1.53
241.602	-0.87
242.072	8.43
242.542	4.63
243.013	-1.47
243.483	6.53
243.953	-3.17
244.423	-0.17
244.893	1.23
245.363	4.43
245.833	7.93
246.303	-0.47
246.773	9.03
247.243	6.63
247.712	5.23
248.182	9.23
248.652	11.23
249.122	1.93
249.592	9.33
250.061	15.53
250.531	30.03
251.001	18.93
251.471	17.23
251.94	18.93
252.41	4.93
252.879	-2.37
253.349	18.03
253.818	11.83
254.288	5.23
254.757	-0.07
255.227	0.33
255.696	0.43
256.166	10.63
256.635	5.13
257.105	5.13
257.574	4.43
258.043	10.53
258.513	14.23
258.982	15.63
259.451	12.63
259.92	12.63
260.389	8.73
260.859	13.23
261.328	16.23
261.797	17.93
262.266	6.63
262.735	16.93
263.204	8.63
263.673	5.13
264.142	8.33
264.611	-3.97
265.08	-0.77
265.549	-0.67
266.018	15.33
266.487	0.23
266.955	0.53
267.424	3.83
267.893	9.33
268.362	6.33
268.83	0.23
269.299	10.03
269.768	12.03
270.236	6.53
270.705	5.93
271.174	5.33
271.642	9.03
272.111	4.23
272.579	16.83
273.048	19.73
273.516	26.53
273.985	23.93
274.453	25.13
274.922	22.53
275.39	12.13
275.858	4.33
276.327	12.63
276.795	16.43
277.263	12.73
277.731	28.03
278.2	46.23
278.668	53.23
279.136	45.53
279.604	17.03
280.072	14.73
280.54	7.53
281.008	13.13
281.477	12.23
281.945	11.13
282.413	17.53
282.881	12.33
283.348	3.63
283.816	11.73
284.284	18.83
284.752	24.73
285.22	13.93
285.688	20.13
286.156	13.33
286.623	38.33
287.091	46.13
287.559	23.33
288.026	16.83
288.494	19.03
288.962	7.13
289.429	8.43
289.897	15.73
290.364	12.73
290.832	17.33
291.3	15.13
291.767	14.93
292.234	16.13
292.702	15.53
293.169	20.63
293.637	21.23
294.104	20.33
294.571	13.33
295.039	12.13
295.506	17.93
295.973	17.63
296.44	13.13
296.908	15.03
297.375	15.93
297.842	21.33
298.309	11.53
298.776	8.73
299.243	18.73
299.71	8.23
300.177	18.53
300.644	24.23
301.111	21.03
301.578	23.83
302.045	17.93
302.512	20.53
302.979	19.13
303.446	23.73
303.913	21.13
304.379	18.43
304.846	27.03
305.313	25.03
305.78	27.03
306.246	24.53
306.713	27.23
307.18	24.43
307.646	27.03
308.113	27.03
308.579	23.53
309.046	22.53
309.512	27.53
309.979	15.43
310.445	22.73
310.912	29.53
311.378	29.13
311.845	25.83
312.311	26.83
312.777	29.53
313.244	28.93
313.71	29.03
314.176	27.73
314.642	31.33
315.109	30.33
315.575	33.23
316.041	39.73
316.507	34.13
316.973	33.63
317.439	27.63
317.905	34.63
318.371	32.63
318.837	33.73
319.303	30.73
319.769	30.33
320.235	26.43
320.701	33.53
321.167	35.63
321.633	31.73
322.099	35.43
322.564	45.13
323.03	41.63
323.496	35.93
323.962	39.23
324.427	36.13
324.893	43.23
325.359	34.33
325.824	39.23
326.29	32.23
326.755	36.83
327.221	39.43
327.686	42.13
328.152	40.33
328.617	39.33
329.083	49.03
329.548	50.13
330.014	47.23
330.479	41.93
330.944	42.23
331.41	40.73
331.875	39.73
332.34	41.43
332.805	36.83
333.271	41.43
333.736	40.73
334.201	51.93
334.666	49.33
335.131	50.53
335.596	52.13
336.061	47.73
336.526	33.33
336.991	50.73
337.456	51.53
337.921	46.73
338.386	41.83
338.851	47.43
339.316	38.63
339.781	35.93
340.246	50.63
340.711	40.83
341.175	41.73
341.64	39.03
342.105	53.43
342.569	56.63
343.034	52.03
343.499	46.73
343.963	48.93
344.428	68.13
344.893	52.43
345.357	55.03
345.822	55.83
346.286	60.73
346.751	68.43
347.215	60.43
347.679	62.33
348.144	82.93
348.608	69.63
349.073	64.43
349.537	69.03
350.001	63.33
350.465	80.53
350.93	70.83
351.394	75.83
351.858	66.53
352.322	83.03
352.786	71.43
353.25	88.13
353.715	95.23
354.179	89.03
354.643	116.03
355.107	109.13
355.571	94.23
356.035	92.93
356.498	101.73
356.962	105.33
357.426	112.53
357.89	94.33
358.354	80.23
358.818	74.73
359.281	74.63
359.745	74.83
360.209	65.33
360.673	67.63
361.136	71.83
361.6	75.93
362.064	71.63
362.527	81.03
362.991	81.13
363.454	76.83
363.918	71.33
364.381	71.53
364.845	75.43
365.308	81.53
365.772	84.33
366.235	77.33
366.698	71.73
367.162	86.03
367.625	81.73
368.088	78.93
368.552	81.13
369.015	83.43
369.478	89.03
369.941	98.43
370.404	85.53
370.867	94.33
371.331	97.53
371.794	102.03
372.257	106.73
372.72	107.43
373.183	101.93
373.646	87.63
374.109	92.83
374.572	92.83
375.035	98.63
375.497	94.93
375.96	93.23
376.423	96.53
376.886	97.83
377.349	99.23
377.811	92.43
378.274	95.43
378.737	97.83
379.199	107.23
379.662	106.43
380.125	106.03
380.587	109.03
381.05	107.43
381.512	121.83
381.975	120.23
382.437	114.43
382.9	117.73
383.362	118.83
383.825	129.83
384.287	132.73
384.75	128.33
385.212	124.33
385.674	132.93
386.136	129.33
386.599	116.43
387.061	124.63
387.523	120.03
387.985	123.33
388.447	134.93
388.91	130.93
389.372	142.33
389.834	137.03
390.296	128.63
390.758	140.73
391.22	153.13
391.682	189.03
392.144	265.83
392.606	209.43
393.068	155.13
393.529	151.03
393.991	136.03
394.453	132.53
394.915	142.83
395.377	170.13
395.838	191.63
396.3	139.93
396.762	131.23
397.224	121.13
397.685	118.13
398.147	122.03
398.608	120.33
399.07	115.83
399.531	117.13
399.993	125.93
400.454	144.23
400.916	136.93
401.377	127.33
401.839	138.53
402.3	139.43
402.762	150.63
403.223	163.33
403.684	153.23
404.145	149.03
404.607	142.03
405.068	151.93
405.529	149.53
405.99	168.13
406.451	158.53
406.913	159.13
407.374	152.63
407.835	150.23
408.296	155.93
408.757	153.23
409.218	167.93
409.679	161.03
410.14	152.93
410.601	162.63
411.062	167.63
411.522	173.33
411.983	174.93
412.444	157.73
412.905	171.53
413.366	172.53
413.826	174.93
414.287	195.93
414.748	241.03
415.208	230.73
415.669	194.23
416.13	190.13
416.59	183.43
417.051	198.83
417.511	204.13
417.972	217.13
418.432	231.13
418.893	264.73
419.353	229.23
419.814	192.03
420.274	166.33
420.734	163.93
421.195	180.93
421.655	182.83
422.115	174.83
422.576	175.73
423.036	185.33
423.496	184.53
423.956	195.83
424.416	208.83
424.876	237.63
425.336	234.43
425.797	244.33
426.257	225.43
426.717	210.63
427.177	213.83
427.637	208.23
428.097	214.13
428.556	223.43
429.016	244.73
429.476	238.43
429.936	247.33
430.396	254.33
430.856	264.73
431.315	284.13
431.775	312.63
432.235	345.73
432.694	316.43
433.154	327.73
433.614	342.43
434.073	302.73
434.533	253.53
434.993	248.93
435.452	249.03
435.912	263.53
436.371	255.53
436.83	249.03
437.29	244.33
437.749	217.23
438.209	219.63
438.668	243.23
439.127	259.13
439.587	235.83
440.046	220.63
440.505	236.03
440.964	244.93
441.424	276.93
441.883	270.73
442.342	229.23
442.801	205.93
443.26	199.93
443.719	201.13
444.178	193.43
444.637	189.33
445.096	202.13
445.555	211.63
446.014	196.73
446.473	205.43
446.932	203.83
447.391	205.93
447.849	207.13
448.308	199.03
448.767	195.53
449.226	216.03
449.685	208.93
450.143	227.23
450.602	223.63
451.061	210.03
451.519	209.73
451.978	206.63
452.436	215.53
452.895	210.13
453.353	233.33
453.812	219.73
454.27	217.53
454.729	214.23
455.187	215.13
455.646	226.33
456.104	217.53
456.562	233.93
457.021	238.83
457.479	229.83
457.937	240.03
458.395	235.93
458.854	221.73
459.312	234.23
459.77	248.53
460.228	229.73
460.686	214.93
461.144	221.03
461.602	222.53
462.06	220.53
462.518	231.13
462.976	229.43
463.434	234.73
463.892	241.03
464.35	256.63
464.808	263.23
465.266	243.03
465.724	241.73
466.181	251.03
466.639	246.13
467.097	265.03
467.555	266.73
468.012	275.13
468.47	273.73
468.928	297.13
469.385	307.93
469.843	305.83
470.3	308.83
470.758	320.93
471.215	337.33
471.673	355.23
472.13	362.03
472.588	360.13
473.045	340.23
473.503	347.73
473.96	357.13
474.417	364.33
474.875	387.23
475.332	425.03
475.789	415.83
476.246	417.33
476.704	431.03
477.161	459.03
477.618	465.03
478.075	503.33
478.532	549.43
478.989	609.83
479.446	706.03
479.903	687.13
480.36	718.73
480.817	781.73
481.274	868.53
481.731	958.83
482.188	1054.33
482.645	1181.73
483.102	1273.93
483.558	1379.23
484.015	1448.43
484.472	1426.93
484.929	1376.03
485.385	1336.73
485.842	1304.93
486.299	1241.53
486.755	1170.43
487.212	989.53
487.668	846.23
488.125	774.83
488.582	715.53
489.038	680.13
489.494	642.03
489.951	618.53
490.407	601.83
490.864	592.53
491.32	586.03
491.776	584.13
492.233	579.13
492.689	550.73
493.145	543.03
493.602	537.43
494.058	561.13
494.514	553.63
494.97	570.73
495.426	576.03
495.882	553.93
496.338	552.23
496.794	554.53
497.251	556.13
497.707	570.13
498.163	570.63
498.618	580.43
499.074	577.53
499.53	601.13
499.986	603.43
500.442	591.13
500.898	565.63
501.354	556.63
501.809	572.23
502.265	579.53
502.721	592.93
503.177	602.83
503.632	594.03
504.088	601.03
504.543	633.93
504.999	631.73
505.455	590.63
505.91	571.43
506.366	570.93
506.821	564.13
507.277	561.73
507.732	556.03
508.187	556.83
508.643	570.33
509.098	569.73
509.553	593.43
510.009	585.53
510.464	594.63
510.919	617.93
511.375	628.73
511.83	632.43
512.285	640.63
512.74	670.43
513.195	694.43
513.65	687.63
514.105	691.63
514.56	692.33
515.015	710.13
515.47	721.03
515.925	710.33
516.38	712.73
516.835	723.43
517.29	703.93
517.745	700.53
518.2	701.73
518.655	681.83
519.109	665.93
519.564	670.63
520.019	653.13
520.474	651.03
520.928	646.03
521.383	646.33
521.838	636.93
522.292	638.83
522.747	644.53
523.201	622.03
523.656	627.33
524.11	623.53
524.565	616.23
525.019	611.53
525.474	617.93
525.928	623.13
526.382	626.23
526.837	607.83
527.291	631.43
527.745	617.33
528.2	620.73
528.654	617.83
529.108	608.83
529.562	615.43
530.016	613.43
530.47	615.83
530.925	610.73
531.379	619.23
531.833	625.63
532.287	624.53
532.741	627.13
533.195	623.93
533.649	638.33
534.103	631.43
534.556	631.03
535.01	628.83
535.464	616.53
535.918	639.23
536.372	631.63
536.826	641.33
537.279	629.23
537.733	626.23
538.187	629.13
538.64	638.33
539.094	635.03
539.548	637.33
540.001	639.43
540.455	640.13
540.908	633.83
541.362	650.73
541.815	650.43
542.269	661.83
542.722	670.83
543.175	673.93
543.629	670.33
544.082	688.03
544.536	694.23
544.989	691.53
545.442	694.23
545.895	693.63
546.349	689.03
546.802	695.63
547.255	692.23
547.708	707.13
548.161	716.73
548.614	720.83
549.067	725.83
549.52	714.53
549.973	704.93
550.426	706.13
550.879	696.43
551.332	698.73
551.785	704.93
552.238	700.63
552.691	715.93
553.144	723.33
553.596	738.73
554.049	745.33
554.502	782.53
554.955	802.13
555.407	793.23
555.86	785.93
556.313	778.63
556.765	771.53
557.218	776.93
557.67	774.93
558.123	758.03
558.576	759.73
559.028	760.93
559.48	767.43
559.933	758.83
560.385	723.33
560.838	689.83
561.29	684.43
561.742	680.43
562.195	658.53
562.647	662.03
563.099	672.43
563.551	664.63
564.004	672.83
564.456	658.13
564.908	665.23
565.36	640.53
565.812	633.63
566.264	628.43
566.716	620.23
567.168	612.63
567.62	622.53
568.072	596.33
568.524	593.13
568.976	594.23
569.428	575.63
569.88	583.23
570.332	586.93
570.784	586.93
571.235	581.33
571.687	589.93
572.139	606.13
572.59	607.53
573.042	605.33
573.494	595.13
573.945	595.73
574.397	584.53
574.849	588.23
575.3	589.93
575.752	585.03
576.203	573.33
576.655	572.83
577.106	569.33
577.557	564.93
578.009	568.43
578.46	563.83
578.912	559.03
579.363	560.53
579.814	567.53
580.265	569.63
580.717	563.43
581.168	567.43
581.619	564.93
582.07	574.53
582.521	566.73
582.972	568.33
583.423	572.83
583.875	575.03
584.326	587.03
584.777	625.93
585.227	697.53
585.678	777.03
586.129	853.93
586.58	923.53
587.031	996.83
587.482	1142.33
587.933	1304.83
588.384	1126.73
588.834	827.23
589.285	679.83
589.736	659.03
590.186	660.83
590.637	651.63
591.088	631.83
591.538	622.13
591.989	620.43
592.439	615.53
592.89	599.93
593.34	591.53
593.791	600.23
594.241	594.53
594.692	586.83
595.142	592.23
595.593	575.43
596.043	595.03
596.493	601.33
596.943	591.73
597.394	614.43
597.844	590.23
598.294	604.43
598.744	630.23
599.195	645.43
599.645	677.73
600.095	717.03
600.545	760.73
600.995	801.23
601.445	847.83
601.895	905.03
602.345	939.43
602.795	934.23
603.245	891.33
603.695	846.83
604.145	809.43
604.594	763.93
605.044	715.83
605.494	673.43
605.944	629.03
606.393	629.83
606.843	602.63
607.293	608.83
607.743	616.23
608.192	607.23
608.642	625.73
609.091	639.33
609.541	636.23
609.99	639.43
610.44	630.93
610.889	601.33
611.339	581.03
611.788	570.53
612.238	580.83
612.687	593.53
613.136	593.03
613.586	602.23
614.035	595.33
614.484	614.83
614.933	616.83
615.383	613.73
615.832	607.13
616.281	595.73
616.73	563.73
617.179	550.73
617.628	534.83
618.077	522.93
618.526	503.73
618.975	500.73
619.424	508.43
619.873	499.43
620.322	503.73
620.771	497.83
621.22	496.43
621.669	480.53
622.118	478.33
622.567	472.33
623.015	463.93
623.464	465.23
623.913	462.03
624.361	452.83
624.81	446.13
625.259	450.33
625.707	461.33
626.156	460.13
626.604	459.13
627.053	457.53
627.501	460.83
627.95	465.03
628.398	472.93
628.847	459.83
629.295	466.83
629.744	475.83
630.192	457.13
630.64	465.53
631.089	460.43
631.537	457.43
631.985	467.83
632.433	483.53
632.881	493.43
633.33	528.53
633.778	505.53
634.226	452.63
634.674	464.33
635.122	468.33
635.57	485.03
636.018	507.83
636.466	471.93
636.914	457.03
637.362	465.73
637.81	466.43
638.258	472.13
638.705	462.33
639.153	492.83
639.601	496.73
640.049	508.43
640.497	548.63
640.944	563.83
641.392	512.33
641.84	499.73
642.287	470.13
642.735	463.83
643.182	455.13
643.63	458.03
644.078	461.33
644.525	477.23
644.973	485.93
645.42	481.93
645.867	501.73
646.315	511.53
646.762	523.63
647.21	557.03
647.657	568.33
648.104	601.33
648.551	623.63
648.999	668.83
649.446	730.83
649.893	797.83
650.34	927.43
650.787	1105.43
651.234	1364.13
651.682	1766.23
652.129	2411.13
652.576	3468.33
653.023	5114.63
653.47	7096.03
653.917	8987.03
654.363	10573.33
654.81	11915.63
655.257	11350.43
655.704	7365.93
656.151	4305.93
656.598	2784.63
657.044	1971.23
657.491	1501.33
657.938	1206.83
658.385	1000.93
658.831	873.23
659.278	780.33
659.724	690.13
660.171	637.53
660.618	575.23
661.064	542.73
661.511	526.63
661.957	517.53
662.404	496.13
662.85	514.13
663.296	487.73
663.743	443.83
664.189	429.23
664.635	431.03
665.082	415.43
665.528	415.73
665.974	414.53
666.42	401.13
666.867	407.43
667.313	392.13
667.759	381.33
668.205	378.73
668.651	385.03
669.097	389.33
669.543	404.93
669.989	376.83
670.435	360.33
670.881	355.63
671.327	354.83
671.773	381.53
672.219	385.23
672.665	434.63
673.11	462.03
673.556	493.13
674.002	537.03
674.448	526.43
674.893	437.63
675.339	381.53
675.785	353.53
676.23	330.03
676.676	317.83
677.122	302.83
677.567	297.53
678.013	291.53
678.458	285.43
678.904	279.63
679.349	270.73
679.794	282.43
680.24	276.73
680.685	277.03
681.131	276.53
681.576	273.03
682.021	281.43
682.466	273.83
682.912	276.33
683.357	278.03
683.802	299.43
684.247	319.33
684.692	351.93
685.137	389.13
685.583	426.13
686.028	453.83
686.473	413.83
686.918	354.43
687.363	338.03
687.807	307.03
688.252	286.33
688.697	281.53
689.142	265.03
689.587	256.33
690.032	257.43
690.477	267.93
690.921	271.93
691.366	298.63
691.811	311.93
692.255	344.93
692.7	365.63
693.145	389.73
693.589	526.63
694.034	861.53
694.478	1203.23
694.923	1388.13
695.367	1865.83
695.812	964.73
696.256	394.83
696.701	303.83
697.145	267.63
697.59	262.13
698.034	261.03
698.478	256.43
698.922	261.03
699.367	260.13
699.811	266.63
700.255	275.63
700.699	303.33
701.143	337.13
701.588	370.73
702.032	414.53
702.476	404.83
702.92	382.13
703.364	380.53
703.808	482.23
704.252	786.83
704.696	1129.93
705.14	1336.13
705.584	1728.73
706.027	859.13
706.471	409.53
706.915	306.93
707.359	275.33
707.803	249.73
708.246	235.53
708.69	249.03
709.134	243.43
709.577	248.63
710.021	254.53
710.465	242.63
710.908	238.43
711.352	234.33
711.795	240.13
712.239	271.03
712.682	295.23
713.126	324.73
713.569	370.63
714.012	293.23
714.456	253.03
714.899	235.73
715.342	217.73
715.786	203.53
716.229	204.43
716.672	204.83
717.115	197.03
717.558	193.43
718.002	198.53
718.445	206.83
718.888	222.73
719.331	229.43
719.774	240.73
720.217	237.83
720.66	223.13
721.103	206.93
721.546	198.23
721.989	201.53
722.432	182.03
722.874	184.23
723.317	185.53
723.76	180.53
724.203	201.13
724.645	245.43
725.088	338.03
725.531	444.83
725.974	508.83
726.416	442.63
726.859	247.33
727.301	194.53
727.744	188.23
728.187	179.43
728.629	183.33
729.071	182.93
729.514	206.63
729.956	213.43
730.399	230.63
730.841	226.43
731.283	216.33
731.726	211.13
732.168	202.43
732.61	204.43
733.053	227.43
733.495	242.83
733.937	273.13
734.379	315.13
734.821	345.83
735.263	420.73
735.705	634.23
736.148	1196.33
736.59	2006.93
737.032	2494.63
737.474	2016.63
737.916	639.73
738.357	330.43
738.799	250.83
739.241	230.43
739.683	220.23
740.125	227.43
740.567	225.83
741.008	252.63
741.45	248.23
741.892	243.03
742.334	271.43
742.775	289.03
743.217	277.13
743.658	212.03
744.1	204.93
744.542	198.83
744.983	246.23
745.425	272.93
745.866	275.73
746.307	223.73
746.749	225.13
747.19	256.43
747.632	337.33
748.073	659.43
748.514	1422.33
748.956	2254.53
749.397	2819.93
749.838	2359.93
750.279	2408.33
750.72	1200.23
751.162	429.13
751.603	253.93
752.044	201.03
752.485	164.63
752.926	163.73
753.367	162.13
753.808	151.93
754.249	149.63
754.69	148.73
755.131	143.83
755.572	140.73
756.013	145.13
756.453	146.03
756.894	142.63
757.335	148.53
757.776	151.03
758.216	146.23
758.657	156.33
759.098	156.63
759.538	173.93
759.979	206.13
760.42	281.23
760.86	527.23
761.301	1370.33
761.741	3437.13
762.182	5329.53
762.622	3746.23
763.063	1054.73
763.503	433.73
