Data from 20171114-ORNL-Ar_H_NY_Subt18_08-04-09-433.txt Node
Date: Tue Nov 14 08:04:09 EST 2017
User: Ender
Spectrometer: HR+D1039
Trigger mode: 0
Integration Time (sec): 2.730000E-2
Scans to average: 10
Electric dark correction enabled: true
Nonlinearity correction enabled: false
Boxcar width: 0
XAxis mode: Wavelengths
Number of Pixels in Spectrum: 2048
>>>>>Begin Spectral Data<<<<<
187.836	-4.75
188.309	-4.75
188.782	-4.75
189.255	0.25
189.728	0.65
190.201	8.15
190.674	-2.05
191.147	2.65
191.619	-14.25
192.092	0.05
192.565	5.25
193.038	-5.55
193.511	2.25
193.984	1.95
194.456	-1.85
194.929	1.65
195.402	0.55
195.874	5.05
196.347	0.75
196.82	-4.45
197.292	5.25
197.765	2.25
198.237	-12.15
198.71	0.55
199.182	-3.05
199.655	3.65
200.127	2.05
200.6	-4.15
201.072	-0.25
201.544	-3.45
202.017	-1.85
202.489	-1.85
202.961	-3.95
203.433	-7.15
203.906	-2.25
204.378	-7.45
204.85	-1.55
205.322	-5.05
205.794	-1.25
206.266	0.75
206.739	-6.15
207.211	-1.75
207.683	-3.45
208.155	-7.35
208.627	-8.15
209.099	1.85
209.57	-9.55
210.042	-3.55
210.514	0.45
210.986	-3.65
211.458	-9.95
211.93	-0.65
212.402	2.45
212.873	-5.55
213.345	-10.65
213.817	-16.65
214.288	-4.35
214.76	-11.75
215.232	-5.95
215.703	-2.35
216.175	-7.35
216.646	-1.85
217.118	-8.35
217.589	4.55
218.061	-0.65
218.532	0.55
219.004	-3.75
219.475	-6.75
219.946	-7.95
220.418	-5.85
220.889	5.55
221.36	1.95
221.832	-4.05
222.303	-8.65
222.774	-0.85
223.245	-10.35
223.717	-8.15
224.188	-8.65
224.659	-11.65
225.13	-10.75
225.601	-2.95
226.072	0.55
226.543	-3.15
227.014	0.55
227.485	-5.25
227.956	-8.15
228.427	-1.45
228.898	-0.05
229.369	8.05
229.839	-4.85
230.31	-4.85
230.781	2.35
231.252	-6.65
231.722	-4.15
232.193	2.95
232.664	4.35
233.135	3.35
233.605	-0.65
234.076	-2.65
234.546	1.75
235.017	4.85
235.487	1.75
235.958	-5.15
236.428	-4.45
236.899	4.35
237.369	-0.15
237.84	-1.85
238.31	9.15
238.78	0.85
239.251	3.25
239.721	3.25
240.191	0.15
240.662	-5.65
241.132	2.75
241.602	-6.05
242.072	6.45
242.542	8.65
243.013	4.65
243.483	1.05
243.953	1.15
244.423	-3.05
244.893	-7.75
245.363	3.15
245.833	-1.05
246.303	3.45
246.773	6.15
247.243	4.35
247.712	-1.55
248.182	12.75
248.652	4.85
249.122	-4.45
249.592	12.45
250.061	19.05
250.531	28.65
251.001	13.05
251.471	22.85
251.94	14.95
252.41	7.35
252.879	0.75
253.349	8.75
253.818	10.35
254.288	10.45
254.757	4.45
255.227	-2.75
255.696	7.05
256.166	9.85
256.635	8.85
257.105	2.75
257.574	6.55
258.043	14.95
258.513	12.25
258.982	14.75
259.451	4.35
259.92	7.95
260.389	4.15
260.859	13.95
261.328	9.45
261.797	16.35
262.266	6.05
262.735	10.45
263.204	7.35
263.673	0.15
264.142	5.25
264.611	-2.35
265.08	-0.55
265.549	-6.15
266.018	5.05
266.487	-5.15
266.955	-1.05
267.424	-0.85
267.893	4.15
268.362	-1.75
268.83	-4.15
269.299	10.05
269.768	7.85
270.236	4.95
270.705	-2.25
271.174	4.05
271.642	5.45
272.111	5.65
272.579	11.55
273.048	16.35
273.516	18.45
273.985	18.65
274.453	16.95
274.922	12.15
275.39	8.05
275.858	-6.15
276.327	11.35
276.795	17.05
277.263	8.75
277.731	23.85
278.2	43.25
278.668	43.15
279.136	34.55
279.604	12.65
280.072	7.65
280.54	10.65
281.008	6.95
281.477	16.25
281.945	9.95
282.413	6.45
282.881	11.75
283.348	9.35
283.816	18.25
284.284	18.05
284.752	17.15
285.22	8.25
285.688	8.15
286.156	17.25
286.623	29.15
287.091	45.85
287.559	19.05
288.026	10.55
288.494	11.05
288.962	1.75
289.429	6.15
289.897	12.95
290.364	11.25
290.832	9.65
291.3	9.35
291.767	11.45
292.234	18.95
292.702	12.55
293.169	13.65
293.637	20.55
294.104	17.25
294.571	3.25
295.039	13.35
295.506	13.95
295.973	12.55
296.44	14.65
296.908	14.45
297.375	15.95
297.842	17.85
298.309	13.55
298.776	6.35
299.243	15.15
299.71	12.45
300.177	15.25
300.644	14.55
301.111	18.75
301.578	17.85
302.045	13.65
302.512	16.75
302.979	15.65
303.446	9.45
303.913	13.35
304.379	8.95
304.846	18.95
305.313	17.05
305.78	15.45
306.246	26.65
306.713	23.65
307.18	22.75
307.646	17.55
308.113	24.05
308.579	18.95
309.046	23.55
309.512	19.55
309.979	11.45
310.445	17.75
310.912	22.45
311.378	26.75
311.845	21.65
312.311	17.05
312.777	19.65
313.244	29.15
313.71	28.45
314.176	34.75
314.642	23.75
315.109	23.35
315.575	33.05
316.041	34.65
316.507	25.95
316.973	30.95
317.439	23.95
317.905	25.75
318.371	32.95
318.837	26.25
319.303	21.15
319.769	23.75
320.235	21.95
320.701	30.95
321.167	27.35
321.633	26.75
322.099	38.15
322.564	33.45
323.03	28.65
323.496	28.35
323.962	31.45
324.427	28.15
324.893	32.25
325.359	30.45
325.824	28.35
326.29	23.35
326.755	30.35
327.221	30.75
327.686	37.35
328.152	40.35
328.617	33.45
329.083	43.05
329.548	43.25
330.014	39.35
330.479	29.35
330.944	29.35
331.41	37.15
331.875	40.85
332.34	30.95
332.805	36.75
333.271	35.45
333.736	34.55
334.201	38.35
334.666	39.55
335.131	45.35
335.596	39.45
336.061	38.05
336.526	32.85
336.991	39.15
337.456	41.05
337.921	38.45
338.386	37.15
338.851	36.25
339.316	35.85
339.781	36.65
340.246	38.95
340.711	40.45
341.175	40.35
341.64	37.65
342.105	39.95
342.569	43.75
343.034	45.85
343.499	44.75
343.963	43.05
344.428	52.45
344.893	45.25
345.357	50.75
345.822	51.95
346.286	53.05
346.751	60.55
347.215	56.25
347.679	56.65
348.144	76.75
348.608	65.15
349.073	61.75
349.537	60.95
350.001	61.25
350.465	73.55
350.93	63.95
351.394	61.95
351.858	55.35
352.322	61.75
352.786	72.45
353.25	75.95
353.715	83.25
354.179	73.65
354.643	93.15
355.107	97.95
355.571	89.85
356.035	87.45
356.498	90.35
356.962	95.95
357.426	101.45
357.89	89.85
358.354	66.75
358.818	62.55
359.281	68.85
359.745	70.55
360.209	66.95
360.673	55.25
361.136	68.35
361.6	74.65
362.064	70.65
362.527	60.15
362.991	77.15
363.454	71.65
363.918	65.75
364.381	65.75
364.845	66.95
365.308	81.75
365.772	75.25
366.235	70.85
366.698	76.65
367.162	71.25
367.625	73.65
368.088	72.35
368.552	74.85
369.015	73.75
369.478	76.95
369.941	79.55
370.404	74.25
370.867	81.45
371.331	89.05
371.794	100.75
372.257	96.65
372.72	97.85
373.183	93.15
373.646	87.25
374.109	85.35
374.572	89.55
375.035	88.75
375.497	94.65
375.96	84.65
376.423	83.75
376.886	92.65
377.349	90.75
377.811	89.35
378.274	87.75
378.737	91.75
379.199	94.65
379.662	96.25
380.125	98.15
380.587	105.65
381.05	104.05
381.512	112.35
381.975	112.85
382.437	117.65
382.9	106.85
383.362	112.05
383.825	114.25
384.287	126.75
384.75	117.15
385.212	123.55
385.674	111.35
386.136	114.85
386.599	104.35
387.061	111.95
387.523	108.55
387.985	117.15
388.447	120.15
388.91	123.25
389.372	133.15
389.834	129.85
390.296	120.25
390.758	134.75
391.22	144.65
391.682	166.25
392.144	254.15
392.606	199.45
393.068	144.35
393.529	141.95
393.991	123.65
394.453	122.65
394.915	138.05
395.377	164.75
395.838	184.45
396.3	136.95
396.762	124.15
397.224	113.95
397.685	110.95
398.147	110.85
398.608	108.05
399.07	107.65
399.531	111.55
399.993	120.55
400.454	126.35
400.916	119.65
401.377	124.75
401.839	124.75
402.3	125.65
402.762	138.65
403.223	155.85
403.684	145.25
404.145	138.85
404.607	132.25
405.068	145.35
405.529	144.55
405.99	151.15
406.451	145.85
406.913	142.85
407.374	134.75
407.835	138.75
408.296	142.85
408.757	147.75
409.218	158.35
409.679	147.95
410.14	150.75
410.601	155.75
411.062	162.25
411.522	159.95
411.983	170.25
412.444	153.25
412.905	158.25
413.366	161.95
413.826	166.95
414.287	187.25
414.748	229.55
415.208	213.85
415.669	182.35
416.13	178.95
416.59	175.15
417.051	186.25
417.511	189.05
417.972	208.95
418.432	211.25
418.893	252.05
419.353	219.25
419.814	176.15
420.274	159.45
420.734	152.25
421.195	169.45
421.655	166.55
422.115	169.55
422.576	166.25
423.036	168.15
423.496	172.95
423.956	187.85
424.416	198.75
424.876	232.55
425.336	222.45
425.797	223.95
426.257	224.95
426.717	203.45
427.177	203.25
427.637	192.05
428.097	197.45
428.556	206.35
429.016	233.85
429.476	237.55
429.936	234.15
430.396	233.55
430.856	241.85
431.315	278.05
431.775	297.75
432.235	318.55
432.694	299.65
433.154	305.15
433.614	319.05
434.073	283.65
434.533	242.05
434.993	229.85
435.452	242.55
435.912	244.35
436.371	244.55
436.83	239.65
437.29	229.75
437.749	213.65
438.209	209.55
438.668	224.35
439.127	235.55
439.587	218.85
440.046	210.55
440.505	220.45
440.964	228.55
441.424	265.95
441.883	257.85
442.342	217.25
442.801	199.05
443.26	191.75
443.719	190.25
444.178	190.85
444.637	181.95
445.096	188.95
445.555	198.95
446.014	196.15
446.473	193.95
446.932	191.85
447.391	195.35
447.849	197.95
448.308	191.75
448.767	189.25
449.226	205.65
449.685	206.35
450.143	210.45
450.602	211.75
451.061	195.85
451.519	206.85
451.978	200.35
452.436	201.85
452.895	207.15
453.353	216.05
453.812	210.25
454.27	199.85
454.729	206.25
455.187	205.95
455.646	209.75
456.104	211.25
456.562	214.35
457.021	224.05
457.479	214.85
457.937	233.25
458.395	222.35
458.854	212.25
459.312	215.45
459.77	227.45
460.228	205.35
460.686	210.25
461.144	214.55
461.602	210.65
462.06	210.55
462.518	217.55
462.976	216.85
463.434	229.05
463.892	224.75
464.35	239.15
464.808	237.25
465.266	229.35
465.724	232.25
466.181	236.55
466.639	238.55
467.097	246.15
467.555	257.75
468.012	261.45
468.47	257.45
468.928	280.05
469.385	291.85
469.843	296.25
470.3	296.95
470.758	297.65
471.215	315.95
471.673	334.95
472.13	342.65
472.588	343.25
473.045	309.85
473.503	329.95
473.96	336.05
474.417	342.65
474.875	369.25
475.332	404.95
475.789	387.95
476.246	391.75
476.704	425.65
477.161	430.95
477.618	444.85
478.075	476.85
478.532	518.65
478.989	578.75
479.446	670.25
479.903	653.15
480.36	697.05
480.817	737.25
481.274	827.35
481.731	919.65
482.188	1007.95
482.645	1118.15
483.102	1213.35
483.558	1329.85
484.015	1381.15
484.472	1369.15
484.929	1331.15
485.385	1285.75
485.842	1248.75
486.299	1182.15
486.755	1108.75
487.212	939.05
487.668	798.25
488.125	747.95
488.582	684.15
489.038	644.35
489.494	627.65
489.951	590.55
490.407	572.15
490.864	554.75
491.32	544.85
491.776	541.25
492.233	545.45
492.689	520.65
493.145	519.05
493.602	513.95
494.058	536.25
494.514	529.65
494.97	545.15
495.426	553.05
495.882	529.75
496.338	521.65
496.794	536.55
497.251	521.15
497.707	549.65
498.163	538.95
498.618	542.85
499.074	549.35
499.53	573.55
499.986	568.25
500.442	546.95
500.898	541.95
501.354	533.25
501.809	537.35
502.265	549.45
502.721	552.05
503.177	569.05
503.632	561.75
504.088	568.45
504.543	601.75
504.999	601.65
505.455	555.85
505.91	541.95
506.366	543.45
506.821	533.25
507.277	531.35
507.732	532.05
508.187	532.35
508.643	537.75
509.098	539.85
509.553	563.75
510.009	558.55
510.464	567.45
510.919	583.35
511.375	583.95
511.83	596.95
512.285	616.05
512.74	643.85
513.195	654.15
513.65	653.05
514.105	646.05
514.56	661.85
515.015	684.65
515.47	687.65
515.925	669.15
516.38	676.45
516.835	678.45
517.29	667.85
517.745	666.25
518.2	654.85
518.655	631.45
519.109	628.75
519.564	644.65
520.019	621.55
520.474	611.05
520.928	615.15
521.383	612.05
521.838	602.25
522.292	597.95
522.747	605.05
523.201	596.65
523.656	581.35
524.11	575.65
524.565	575.95
525.019	577.35
525.474	585.75
525.928	587.75
526.382	584.45
526.837	590.15
527.291	597.15
527.745	587.35
528.2	589.55
528.654	584.15
529.108	569.85
529.562	573.25
530.016	577.95
530.47	580.75
530.925	579.35
531.379	583.45
531.833	599.55
532.287	589.95
532.741	586.95
533.195	590.45
533.649	604.65
534.103	614.05
534.556	594.25
535.01	590.15
535.464	589.05
535.918	601.45
536.372	600.15
536.826	596.65
537.279	585.65
537.733	584.95
538.187	603.95
538.64	594.55
539.094	605.65
539.548	612.75
540.001	597.85
540.455	601.85
540.908	610.25
541.362	608.35
541.815	620.05
542.269	627.55
542.722	630.85
543.175	637.65
543.629	639.25
544.082	656.65
544.536	644.75
544.989	658.65
545.442	648.95
545.895	656.45
546.349	651.65
546.802	655.45
547.255	662.45
547.708	661.45
548.161	674.95
548.614	677.45
549.067	681.15
549.52	671.35
549.973	673.95
550.426	665.45
550.879	659.85
551.332	662.85
551.785	660.75
552.238	657.75
552.691	667.55
553.144	683.15
553.596	684.95
554.049	708.45
554.502	733.15
554.955	754.15
555.407	746.05
555.86	729.05
556.313	729.95
556.765	725.75
557.218	728.25
557.67	722.05
558.123	721.95
558.576	713.15
559.028	723.45
559.48	734.55
559.933	716.95
560.385	689.55
560.838	667.25
561.29	651.15
561.742	638.85
562.195	636.25
562.647	624.85
563.099	624.95
563.551	636.05
564.004	639.75
564.456	629.55
564.908	629.15
565.36	606.25
565.812	600.55
566.264	577.95
566.716	585.95
567.168	584.55
567.62	579.35
568.072	572.85
568.524	552.95
568.976	561.65
569.428	546.25
569.88	538.05
570.332	542.65
570.784	550.95
571.235	553.25
571.687	564.15
572.139	570.25
572.59	572.15
573.042	567.85
573.494	568.35
573.945	567.15
574.397	545.65
574.849	557.95
575.3	559.75
575.752	552.95
576.203	548.55
576.655	556.35
577.106	536.05
577.557	531.85
578.009	539.75
578.46	532.55
578.912	528.15
579.363	514.65
579.814	531.95
580.265	533.25
580.717	534.15
581.168	533.25
581.619	543.45
582.07	541.55
582.521	537.05
582.972	530.15
583.423	548.15
583.875	538.65
584.326	563.05
584.777	587.85
585.227	661.65
585.678	737.65
586.129	806.95
586.58	872.95
587.031	945.05
587.482	1091.55
587.933	1245.75
588.384	1082.15
588.834	797.55
589.285	638.45
589.736	625.45
590.186	610.85
590.637	607.35
591.088	586.05
591.538	585.55
591.989	576.25
592.439	579.35
592.89	564.25
593.34	570.45
593.791	556.95
594.241	552.35
594.692	560.45
595.142	545.85
595.593	549.35
596.043	561.45
596.493	557.95
596.943	558.15
597.394	568.15
597.844	557.15
598.294	573.95
598.744	595.15
599.195	605.05
599.645	643.55
600.095	666.55
600.545	711.95
600.995	751.15
601.445	801.45
601.895	854.95
602.345	897.65
602.795	872.25
603.245	845.65
603.695	793.65
604.145	746.55
604.594	718.35
605.044	670.25
605.494	627.45
605.944	587.95
606.393	590.15
606.843	565.75
607.293	576.05
607.743	571.65
608.192	576.35
608.642	588.35
609.091	598.55
609.541	603.85
609.99	592.45
610.44	599.75
610.889	564.35
611.339	536.65
611.788	522.55
612.238	539.55
612.687	562.15
613.136	558.65
613.586	575.35
614.035	567.55
614.484	594.25
614.933	584.05
615.383	589.25
615.832	576.95
616.281	565.55
616.73	540.35
617.179	524.15
617.628	506.05
618.077	481.25
618.526	480.15
618.975	477.85
619.424	478.55
619.873	471.25
620.322	478.45
620.771	473.25
621.22	463.45
621.669	458.65
622.118	451.45
622.567	452.75
623.015	439.95
623.464	434.25
623.913	428.25
624.361	418.65
624.81	427.85
625.259	421.35
625.707	431.85
626.156	427.35
626.604	443.75
627.053	430.15
627.501	438.35
627.95	435.85
628.398	449.05
628.847	440.15
629.295	438.95
629.744	439.65
630.192	434.85
630.64	436.65
631.089	427.65
631.537	434.65
631.985	440.85
632.433	460.15
632.881	456.45
633.33	490.45
633.778	477.65
634.226	425.15
634.674	429.35
635.122	441.25
635.57	453.45
636.018	463.45
636.466	441.35
636.914	419.45
637.362	435.65
637.81	435.55
638.258	437.15
638.705	433.25
639.153	462.75
639.601	470.15
640.049	479.85
640.497	514.45
640.944	524.15
641.392	476.45
641.84	468.55
642.287	451.15
642.735	432.25
643.182	435.45
643.63	440.25
644.078	437.85
644.525	450.45
644.973	445.45
645.42	465.25
645.867	472.15
646.315	486.15
646.762	504.95
647.21	526.15
647.657	536.35
648.104	572.75
648.551	583.65
648.999	637.05
649.446	688.85
649.893	757.25
650.34	879.05
650.787	1040.45
651.234	1282.75
651.682	1667.35
652.129	2268.15
652.576	3238.85
653.023	4878.05
653.47	6766.25
653.917	8549.15
654.363	9999.15
654.81	11337.75
655.257	10805.45
655.704	7003.95
656.151	4075.95
656.598	2642.65
657.044	1873.25
657.491	1427.15
657.938	1132.05
658.385	950.55
658.831	819.15
659.278	725.35
659.724	647.85
660.171	600.35
660.618	546.05
661.064	515.75
661.511	491.25
661.957	479.25
662.404	478.05
662.85	484.75
663.296	455.15
663.743	422.45
664.189	400.75
664.635	406.65
665.082	402.75
665.528	400.55
665.974	385.15
666.42	374.45
666.867	378.95
667.313	359.05
667.759	361.95
668.205	351.85
668.651	366.65
669.097	366.05
669.543	385.25
669.989	361.85
670.435	338.35
670.881	329.05
671.327	338.65
671.773	354.05
672.219	363.25
672.665	404.75
673.11	429.05
673.556	468.35
674.002	509.35
674.448	491.65
674.893	414.45
675.339	355.05
675.785	324.55
676.23	312.55
676.676	288.35
677.122	279.05
677.567	278.95
678.013	274.85
678.458	259.85
678.904	271.05
679.349	257.25
679.794	255.95
680.24	258.65
680.685	259.35
681.131	257.75
681.576	260.85
682.021	258.45
682.466	252.65
682.912	254.95
683.357	257.65
683.802	278.65
684.247	303.05
684.692	327.25
685.137	360.55
685.583	402.85
686.028	417.45
686.473	390.95
686.918	320.85
687.363	312.65
687.807	298.65
688.252	267.65
688.697	264.45
689.142	257.05
689.587	245.55
690.032	233.25
690.477	252.15
690.921	259.75
691.366	290.05
691.811	292.45
692.255	324.25
692.7	343.55
693.145	371.95
693.589	488.35
694.034	805.45
694.478	1122.85
694.923	1323.15
695.367	1747.45
695.812	898.05
696.256	374.55
696.701	275.45
697.145	259.05
697.59	245.85
698.034	238.85
698.478	246.85
698.922	246.05
699.367	242.65
699.811	245.15
700.255	262.15
700.699	278.45
701.143	316.15
701.588	355.15
702.032	384.95
702.476	382.05
702.92	359.95
703.364	361.45
703.808	451.05
704.252	741.35
704.696	1052.65
705.14	1243.45
705.584	1637.85
706.027	798.95
706.471	388.55
706.915	290.35
707.359	250.85
707.803	233.85
708.246	230.05
708.69	231.45
709.134	233.85
709.577	230.75
710.021	230.65
710.465	232.05
710.908	217.55
711.352	212.45
711.795	227.35
712.239	255.55
712.682	273.15
713.126	299.95
713.569	350.75
714.012	278.05
714.456	240.15
714.899	220.95
715.342	210.15
715.786	195.15
716.229	190.85
716.672	193.55
717.115	182.25
717.558	182.25
718.002	186.45
718.445	186.85
718.888	208.85
719.331	220.75
719.774	226.25
720.217	222.35
720.66	208.05
721.103	196.05
721.546	185.85
721.989	172.75
722.432	172.45
722.874	173.65
723.317	163.55
723.76	173.55
724.203	190.25
724.645	226.55
725.088	313.75
725.531	417.95
725.974	480.55
726.416	413.65
726.859	233.65
727.301	180.85
727.744	170.85
728.187	167.15
728.629	175.05
729.071	180.75
729.514	186.95
729.956	200.95
730.399	206.05
730.841	207.25
731.283	204.45
731.726	188.85
732.168	191.55
732.61	184.75
733.053	206.15
733.495	227.65
733.937	259.95
734.379	290.75
734.821	313.55
735.263	395.75
735.705	597.85
736.148	1120.05
736.59	1885.05
737.032	2331.65
737.474	1914.25
737.916	608.65
738.357	314.15
738.799	243.05
739.241	217.55
739.683	204.35
740.125	214.75
740.567	213.45
741.008	234.65
741.45	234.65
741.892	233.95
742.334	261.15
742.775	265.25
743.217	257.95
743.658	201.35
744.1	181.15
744.542	194.45
744.983	235.05
745.425	263.35
745.866	257.65
746.307	212.85
746.749	209.85
747.19	228.65
747.632	316.75
748.073	602.35
748.514	1328.95
748.956	2108.55
749.397	2639.95
749.838	2202.05
750.279	2282.35
750.72	1137.25
751.162	406.55
751.603	228.95
752.044	189.85
752.485	160.95
752.926	153.35
753.367	143.15
753.808	142.45
754.249	142.25
754.69	137.35
755.131	135.75
755.572	130.65
756.013	128.25
756.453	140.75
756.894	138.35
757.335	139.05
757.776	142.35
758.216	144.45
758.657	151.55
759.098	145.35
759.538	167.95
759.979	192.05
760.42	264.65
760.86	493.55
761.301	1279.65
761.741	3220.55
762.182	5013.85
762.622	3543.15
763.063	995.35
763.503	399.95
763.943	246.85
