Data from 20171114-ORNL-Ar_H_NY_Subt18_08-03-54-965.txt Node
Date: Tue Nov 14 08:03:54 EST 2017
User: Ender
Spectrometer: HR+D1039
Trigger mode: 0
Integration Time (sec): 2.730000E-2
Scans to average: 10
Electric dark correction enabled: true
Nonlinearity correction enabled: false
Boxcar width: 0
XAxis mode: Wavelengths
Number of Pixels in Spectrum: 2048
>>>>>Begin Spectral Data<<<<<
187.836	-6.36
188.309	-6.36
188.782	-6.36
189.255	3.04
189.728	2.04
190.201	6.94
190.674	-0.56
191.147	3.54
191.619	-8.76
192.092	-1.26
192.565	5.84
193.038	-2.06
193.511	-0.86
193.984	-3.06
194.456	-0.56
194.929	3.14
195.402	0.24
195.874	-1.36
196.347	2.14
196.82	-4.76
197.292	-2.26
197.765	-0.26
198.237	-5.76
198.71	2.94
199.182	-1.96
199.655	3.64
200.127	0.14
200.6	-2.06
201.072	3.64
201.544	1.94
202.017	-1.16
202.489	4.74
202.961	0.14
203.433	-2.76
203.906	-7.46
204.378	-7.46
204.85	-7.46
205.322	-5.16
205.794	-2.46
206.266	0.54
206.739	-4.36
207.211	2.64
207.683	-14.76
208.155	-3.26
208.627	-10.16
209.099	-8.56
209.57	-5.96
210.042	-1.96
210.514	0.54
210.986	-8.36
211.458	-13.36
211.93	-5.26
212.402	-6.06
212.873	-7.16
213.345	-12.06
213.817	-13.96
214.288	-9.56
214.76	-10.96
215.232	-0.46
215.703	-4.66
216.175	-3.16
216.646	-0.06
217.118	-5.66
217.589	-1.66
218.061	1.44
218.532	-8.46
219.004	-3.76
219.475	-4.86
219.946	-3.76
220.418	-8.96
220.889	3.14
221.36	2.74
221.832	-3.66
222.303	-6.16
222.774	4.84
223.245	-7.06
223.717	-5.46
224.188	0.14
224.659	-5.56
225.13	-10.66
225.601	-2.96
226.072	-0.26
226.543	0.24
227.014	0.84
227.485	-1.86
227.956	-7.76
228.427	1.34
228.898	-3.26
229.369	0.84
229.839	-8.76
230.31	-1.86
230.781	-4.36
231.252	-5.16
231.722	-5.26
232.193	-5.66
232.664	-1.86
233.135	4.14
233.605	-3.36
234.076	-9.56
234.546	-0.26
235.017	4.74
235.487	-1.76
235.958	0.04
236.428	-1.16
236.899	-4.06
237.369	-2.96
237.84	-6.66
238.31	3.24
238.78	-4.36
239.251	-6.36
239.721	-5.76
240.191	-4.16
240.662	-5.16
241.132	-2.56
241.602	-1.36
242.072	-1.46
242.542	-0.46
243.013	-5.86
243.483	-1.46
243.953	-1.16
244.423	-0.96
244.893	-8.86
245.363	6.34
245.833	-1.06
246.303	-0.76
246.773	3.84
247.243	1.94
247.712	-0.36
248.182	7.24
248.652	6.34
249.122	-6.66
249.592	-1.66
250.061	2.54
250.531	11.44
251.001	0.64
251.471	0.84
251.94	11.04
252.41	2.24
252.879	-8.16
253.349	5.94
253.818	6.24
254.288	-2.36
254.757	-1.66
255.227	-7.56
255.696	-2.96
256.166	-2.76
256.635	5.74
257.105	2.04
257.574	-1.76
258.043	2.64
258.513	-4.66
258.982	1.54
259.451	-3.76
259.92	0.14
260.389	-0.16
260.859	7.14
261.328	-1.06
261.797	2.14
262.266	2.04
262.735	1.74
263.204	2.14
263.673	-4.56
264.142	2.74
264.611	-1.36
265.08	-5.46
265.549	-5.26
266.018	0.24
266.487	-6.56
266.955	-1.56
267.424	-6.26
267.893	0.54
268.362	0.64
268.83	-1.76
269.299	5.94
269.768	-0.56
270.236	-0.16
270.705	-4.16
271.174	2.44
271.642	-0.36
272.111	-5.16
272.579	1.44
273.048	-2.46
273.516	-1.76
273.985	3.34
274.453	2.14
274.922	6.54
275.39	4.34
275.858	-4.56
276.327	4.74
276.795	11.74
277.263	2.94
277.731	8.64
278.2	4.24
278.668	6.84
279.136	12.54
279.604	3.94
280.072	7.94
280.54	1.94
281.008	7.84
281.477	6.24
281.945	9.74
282.413	7.24
282.881	8.74
283.348	1.64
283.816	8.44
284.284	12.84
284.752	15.34
285.22	8.34
285.688	1.44
286.156	6.94
286.623	16.64
287.091	5.24
287.559	10.64
288.026	14.54
288.494	7.64
288.962	0.34
289.429	5.94
289.897	12.34
290.364	11.24
290.832	14.34
291.3	9.14
291.767	9.64
292.234	9.44
292.702	6.94
293.169	7.14
293.637	16.44
294.104	9.34
294.571	-0.86
295.039	1.64
295.506	8.24
295.973	10.64
296.44	8.04
296.908	9.74
297.375	7.94
297.842	17.04
298.309	14.94
298.776	8.64
299.243	16.24
299.71	2.64
300.177	12.74
300.644	13.84
301.111	11.94
301.578	17.14
302.045	13.74
302.512	20.04
302.979	22.04
303.446	13.74
303.913	15.14
304.379	10.74
304.846	23.24
305.313	17.74
305.78	15.24
306.246	20.84
306.713	13.94
307.18	18.04
307.646	13.74
308.113	16.34
308.579	13.34
309.046	17.04
309.512	22.84
309.979	13.74
310.445	20.54
310.912	23.54
311.378	29.64
311.845	22.04
312.311	21.74
312.777	20.64
313.244	27.54
313.71	27.64
314.176	21.94
314.642	21.54
315.109	22.24
315.575	24.64
316.041	29.04
316.507	22.04
316.973	21.34
317.439	19.64
317.905	18.24
318.371	31.34
318.837	27.24
319.303	20.34
319.769	27.64
320.235	25.44
320.701	29.14
321.167	30.24
321.633	22.94
322.099	23.24
322.564	25.84
323.03	27.74
323.496	26.04
323.962	29.44
324.427	30.04
324.893	30.54
325.359	25.64
325.824	33.14
326.29	25.24
326.755	27.74
327.221	32.74
327.686	30.94
328.152	38.14
328.617	31.14
329.083	31.94
329.548	37.74
330.014	34.24
330.479	31.84
330.944	29.04
331.41	37.34
331.875	40.44
332.34	36.04
332.805	30.64
333.271	32.64
333.736	31.84
334.201	43.14
334.666	41.74
335.131	46.84
335.596	47.14
336.061	42.74
336.526	36.34
336.991	42.84
337.456	48.54
337.921	39.84
338.386	35.44
338.851	37.94
339.316	40.14
339.781	41.14
340.246	51.44
340.711	40.94
341.175	47.14
341.64	43.04
342.105	46.94
342.569	45.74
343.034	43.04
343.499	43.54
343.963	39.74
344.428	53.24
344.893	49.94
345.357	45.54
345.822	48.24
346.286	50.14
346.751	63.54
347.215	57.94
347.679	57.44
348.144	74.14
348.608	67.54
349.073	59.94
349.537	59.24
350.001	64.94
350.465	72.34
350.93	65.64
351.394	68.94
351.858	66.64
352.322	70.74
352.786	65.14
353.25	83.54
353.715	81.44
354.179	76.24
354.643	98.04
355.107	95.94
355.571	80.14
356.035	84.84
356.498	92.64
356.962	88.94
357.426	100.04
357.89	95.54
358.354	77.64
358.818	70.14
359.281	69.44
359.745	62.54
360.209	69.34
360.673	62.54
361.136	73.74
361.6	77.04
362.064	74.24
362.527	76.64
362.991	76.14
363.454	80.34
363.918	69.94
364.381	67.24
364.845	81.74
365.308	78.14
365.772	79.34
366.235	74.44
366.698	71.44
367.162	74.14
367.625	79.64
368.088	78.04
368.552	86.24
369.015	72.64
369.478	87.94
369.941	83.54
370.404	85.14
370.867	87.24
371.331	89.24
371.794	99.14
372.257	88.64
372.72	98.04
373.183	93.64
373.646	90.74
374.109	90.34
374.572	89.84
375.035	93.14
375.497	94.24
375.96	95.64
376.423	89.84
376.886	100.14
377.349	90.54
377.811	92.14
378.274	101.74
378.737	100.34
379.199	97.74
379.662	96.64
380.125	98.74
380.587	101.34
381.05	105.64
381.512	107.94
381.975	113.24
382.437	108.24
382.9	111.14
383.362	114.24
383.825	118.04
384.287	119.64
384.75	109.94
385.212	118.64
385.674	122.54
386.136	123.64
386.599	119.94
387.061	126.64
387.523	117.64
387.985	119.14
388.447	126.04
388.91	123.74
389.372	122.94
389.834	128.24
390.296	125.24
390.758	128.14
391.22	132.94
391.682	136.54
392.144	145.14
392.606	138.84
393.068	135.24
393.529	139.64
393.991	133.34
394.453	128.74
394.915	124.54
395.377	132.74
395.838	133.84
396.3	134.14
396.762	130.14
397.224	128.14
397.685	128.44
398.147	124.24
398.608	128.84
399.07	129.74
399.531	136.54
399.993	143.64
400.454	144.74
400.916	145.64
401.377	141.14
401.839	146.24
402.3	146.04
402.762	155.14
403.223	171.74
403.684	160.94
404.145	150.24
404.607	165.54
405.068	152.74
405.529	165.24
405.99	170.64
406.451	158.84
406.913	160.84
407.374	157.44
407.835	159.54
408.296	162.94
408.757	164.44
409.218	170.74
409.679	177.24
410.14	168.24
410.601	170.14
411.062	175.44
411.522	177.74
411.983	171.34
412.444	167.44
412.905	174.64
413.366	183.54
413.826	185.84
414.287	213.44
414.748	257.04
415.208	258.64
415.669	213.34
416.13	203.94
416.59	203.84
417.051	215.34
417.511	229.64
417.972	239.34
418.432	252.74
418.893	301.54
419.353	251.74
419.814	197.34
420.274	182.74
420.734	177.84
421.195	194.14
421.655	183.34
422.115	188.64
422.576	192.84
423.036	198.04
423.496	202.44
423.956	212.04
424.416	227.44
424.876	266.44
425.336	258.94
425.797	256.64
426.257	248.54
426.717	227.54
427.177	225.54
427.637	212.14
428.097	221.14
428.556	233.24
429.016	257.34
429.476	246.64
429.936	253.94
430.396	264.24
430.856	276.14
431.315	287.34
431.775	310.84
432.235	350.34
432.694	329.04
433.154	325.04
433.614	349.34
434.073	311.24
434.533	264.54
434.993	254.14
435.452	260.94
435.912	262.54
436.371	262.14
436.83	251.94
437.29	246.54
437.749	235.74
438.209	230.44
438.668	251.64
439.127	256.94
439.587	251.14
440.046	235.64
440.505	248.34
440.964	259.34
441.424	282.24
441.883	272.74
442.342	246.74
442.801	222.04
443.26	211.24
443.719	220.84
444.178	218.34
444.637	212.54
445.096	223.54
445.555	214.14
446.014	222.34
446.473	230.34
446.932	225.44
447.391	218.84
447.849	225.94
448.308	214.74
448.767	219.44
449.226	235.34
449.685	237.64
450.143	250.24
450.602	231.74
451.061	220.14
451.519	220.74
451.978	225.14
452.436	223.84
452.895	227.44
453.353	230.94
453.812	229.04
454.27	229.84
454.729	227.64
455.187	231.64
455.646	231.24
456.104	236.34
456.562	239.44
457.021	250.44
457.479	244.44
457.937	256.54
458.395	251.84
458.854	240.14
459.312	241.94
459.77	248.14
460.228	234.04
460.686	241.44
461.144	247.54
461.602	243.54
462.06	236.34
462.518	247.84
462.976	242.74
463.434	253.94
463.892	256.44
464.35	265.04
464.808	269.34
465.266	256.84
465.724	264.14
466.181	276.74
466.639	261.34
467.097	284.84
467.555	287.34
468.012	284.24
468.47	293.04
468.928	306.44
469.385	331.44
469.843	325.44
470.3	322.04
470.758	338.24
471.215	348.74
471.673	370.34
472.13	368.94
472.588	376.64
473.045	352.54
473.503	356.54
473.96	368.44
474.417	380.14
474.875	403.34
475.332	435.04
475.789	426.94
476.246	433.44
476.704	453.74
477.161	463.74
477.618	472.44
478.075	515.54
478.532	557.64
478.989	613.34
479.446	694.24
479.903	680.64
480.36	724.54
480.817	759.94
481.274	831.34
481.731	923.24
482.188	981.84
482.645	1102.94
483.102	1182.04
483.558	1288.04
484.015	1339.04
484.472	1309.44
484.929	1280.84
485.385	1244.04
485.842	1219.14
486.299	1174.54
486.755	1110.14
487.212	968.24
487.668	831.34
488.125	773.64
488.582	713.74
489.038	686.04
489.494	644.34
489.951	628.44
490.407	603.04
490.864	598.44
491.32	591.34
491.776	585.94
492.233	582.54
492.689	563.04
493.145	556.54
493.602	549.14
494.058	567.84
494.514	560.44
494.97	572.14
495.426	579.04
495.882	552.14
496.338	542.94
496.794	565.74
497.251	555.64
497.707	569.34
498.163	580.14
498.618	579.54
499.074	580.24
499.53	592.14
499.986	601.14
500.442	572.44
500.898	563.54
501.354	557.94
501.809	560.54
502.265	564.74
502.721	576.44
503.177	582.34
503.632	582.54
504.088	584.24
504.543	606.84
504.999	615.94
505.455	593.54
505.91	584.54
506.366	577.04
506.821	572.74
507.277	575.54
507.732	567.94
508.187	582.34
508.643	593.64
509.098	589.14
509.553	596.64
510.009	605.04
510.464	606.94
510.919	623.94
511.375	627.04
511.83	628.74
512.285	653.54
512.74	683.64
513.195	692.04
513.65	683.84
514.105	682.34
514.56	692.74
515.015	702.74
515.47	710.94
515.925	699.84
516.38	716.64
516.835	714.44
517.29	703.34
517.745	703.04
518.2	691.74
518.655	671.94
519.109	661.24
519.564	657.54
520.019	641.54
520.474	643.44
520.928	654.24
521.383	643.34
521.838	629.64
522.292	632.54
522.747	632.14
523.201	631.84
523.656	618.74
524.11	617.34
524.565	612.94
525.019	607.34
525.474	621.84
525.928	616.74
526.382	601.54
526.837	610.44
527.291	617.64
527.745	612.84
528.2	614.54
528.654	612.84
529.108	607.14
529.562	610.64
530.016	602.34
530.47	607.44
530.925	606.74
531.379	599.14
531.833	609.94
532.287	608.64
532.741	607.74
533.195	602.24
533.649	613.94
534.103	624.64
534.556	607.74
535.01	604.34
535.464	598.64
535.918	613.44
536.372	617.14
536.826	620.94
537.279	603.14
537.733	606.84
538.187	611.24
538.64	606.34
539.094	610.14
539.548	630.34
540.001	619.04
540.455	614.64
540.908	629.34
541.362	635.54
541.815	635.64
542.269	653.54
542.722	653.74
543.175	661.04
543.629	665.44
544.082	672.64
544.536	676.84
544.989	668.34
545.442	679.54
545.895	676.44
546.349	674.54
546.802	674.64
547.255	681.04
547.708	695.24
548.161	693.04
548.614	694.44
549.067	699.54
549.52	702.54
549.973	696.54
550.426	683.64
550.879	668.74
551.332	678.74
551.785	678.44
552.238	686.34
552.691	693.94
553.144	693.34
553.596	716.34
554.049	728.94
554.502	744.84
554.955	763.24
555.407	761.64
555.86	752.94
556.313	749.54
556.765	728.64
557.218	740.74
557.67	730.84
558.123	728.34
558.576	729.94
559.028	737.74
559.48	735.94
559.933	727.34
560.385	696.14
560.838	670.44
561.29	666.64
561.742	652.14
562.195	637.14
562.647	633.04
563.099	639.44
563.551	639.94
564.004	641.94
564.456	637.74
564.908	628.74
565.36	607.54
565.812	594.64
566.264	598.34
566.716	589.84
567.168	568.84
567.62	584.24
568.072	574.04
568.524	575.74
568.976	553.14
569.428	555.94
569.88	557.94
570.332	563.54
570.784	553.14
571.235	564.34
571.687	569.84
572.139	568.54
572.59	577.34
573.042	579.64
573.494	582.44
573.945	572.64
574.397	563.04
574.849	561.34
575.3	554.14
575.752	549.04
576.203	546.54
576.655	559.54
577.106	541.44
577.557	542.24
578.009	537.44
578.46	532.34
578.912	531.14
579.363	533.14
579.814	539.64
580.265	522.64
580.717	531.14
581.168	528.64
581.619	533.64
582.07	542.64
582.521	539.84
582.972	531.44
583.423	544.04
583.875	538.34
584.326	546.04
584.777	546.04
585.227	573.64
585.678	591.74
586.129	614.54
586.58	633.04
587.031	651.44
587.482	687.74
587.933	733.04
588.384	696.74
588.834	642.54
589.285	613.64
589.736	608.54
590.186	606.84
590.637	609.94
591.088	592.84
591.538	581.14
591.989	573.94
592.439	565.44
592.89	560.54
593.34	548.44
593.791	543.04
594.241	544.54
594.692	535.94
595.142	539.04
595.593	540.14
596.043	548.24
596.493	549.44
596.943	546.84
597.394	557.14
597.844	549.64
598.294	569.14
598.744	590.74
599.195	607.34
599.645	636.64
600.095	668.94
600.545	710.74
600.995	740.94
601.445	788.04
601.895	824.84
602.345	870.84
602.795	852.04
603.245	824.94
603.695	793.64
604.145	735.44
604.594	715.44
605.044	668.34
605.494	614.34
605.944	575.74
606.393	565.34
606.843	552.74
607.293	554.84
607.743	553.74
608.192	558.64
608.642	567.44
609.091	568.74
609.541	568.44
609.99	573.24
610.44	573.44
610.889	541.84
611.339	522.24
611.788	509.84
612.238	522.64
612.687	543.64
613.136	524.04
613.586	540.44
614.035	527.64
614.484	533.84
614.933	535.94
615.383	526.54
615.832	525.74
616.281	523.54
616.73	500.94
617.179	500.24
617.628	487.84
618.077	479.64
618.526	473.14
618.975	462.34
619.424	468.64
619.873	458.64
620.322	468.84
620.771	450.04
621.22	451.24
621.669	443.04
622.118	435.54
622.567	433.54
623.015	424.74
623.464	433.44
623.913	417.54
624.361	417.64
624.81	413.64
625.259	409.94
625.707	423.84
626.156	415.64
626.604	429.54
627.053	418.14
627.501	418.34
627.95	426.44
628.398	436.04
628.847	424.94
629.295	423.54
629.744	426.74
630.192	416.54
630.64	418.44
631.089	399.64
631.537	398.24
631.985	389.24
632.433	398.14
632.881	387.84
633.33	399.34
633.778	393.64
634.226	378.54
634.674	388.34
635.122	396.34
635.57	402.64
636.018	411.84
636.466	414.64
636.914	413.54
637.362	413.54
637.81	427.24
638.258	423.04
638.705	420.74
639.153	449.54
639.601	451.64
640.049	468.94
640.497	492.54
640.944	514.94
641.392	471.94
641.84	450.44
642.287	428.24
642.735	409.74
643.182	414.24
643.63	405.74
644.078	405.14
644.525	416.24
644.973	421.14
645.42	428.94
645.867	452.84
646.315	462.34
646.762	469.74
647.21	487.24
647.657	506.44
648.104	521.24
648.551	538.24
648.999	571.14
649.446	621.64
649.893	674.34
650.34	784.04
650.787	920.24
651.234	1123.94
651.682	1446.74
652.129	1926.54
652.576	2741.54
653.023	3994.54
653.47	5557.24
653.917	6962.34
654.363	8206.04
654.81	9310.84
655.257	8860.14
655.704	5844.24
656.151	3458.34
656.598	2246.04
657.044	1620.84
657.491	1246.04
657.938	1014.34
658.385	849.64
658.831	744.74
659.278	659.44
659.724	589.74
660.171	549.74
660.618	507.94
661.064	471.64
661.511	454.34
661.957	441.74
662.404	437.84
662.85	445.84
663.296	415.84
663.743	386.64
664.189	391.94
664.635	379.34
665.082	372.94
665.528	379.44
665.974	359.94
666.42	359.84
666.867	352.34
667.313	338.94
667.759	333.24
668.205	323.14
668.651	327.24
669.097	326.94
669.543	324.34
669.989	315.64
670.435	325.74
670.881	308.64
671.327	319.74
671.773	333.84
672.219	356.44
672.665	392.54
673.11	415.84
673.556	456.04
674.002	487.64
674.448	483.64
674.893	398.84
675.339	346.44
675.785	315.74
676.23	303.74
676.676	276.14
677.122	272.04
677.567	265.24
678.013	262.54
678.458	258.54
678.904	262.44
679.349	247.04
679.794	246.34
680.24	250.44
680.685	252.04
681.131	245.44
681.576	250.74
682.021	254.84
682.466	247.34
682.912	249.04
683.357	241.74
683.802	270.84
684.247	289.74
684.692	324.84
685.137	346.54
685.583	386.14
686.028	412.74
686.473	371.64
686.918	312.14
687.363	296.04
687.807	286.14
688.252	259.74
688.697	254.44
689.142	242.24
689.587	241.74
690.032	228.44
690.477	246.84
690.921	242.14
691.366	266.64
691.811	282.74
692.255	303.84
692.7	339.34
693.145	349.04
693.589	479.74
694.034	777.34
694.478	1083.54
694.923	1274.54
695.367	1709.14
695.812	889.64
696.256	372.14
696.701	263.64
697.145	242.24
697.59	235.94
698.034	224.44
698.478	233.14
698.922	226.14
699.367	232.54
699.811	237.54
700.255	249.94
700.699	264.94
701.143	296.14
701.588	340.24
702.032	368.84
702.476	366.94
702.92	350.94
703.364	353.64
703.808	438.14
704.252	709.64
704.696	1028.84
705.14	1233.24
705.584	1601.14
706.027	788.64
706.471	379.94
706.915	275.74
707.359	251.54
707.803	217.44
708.246	217.14
708.69	217.24
709.134	218.14
709.577	217.54
710.021	223.34
710.465	216.14
710.908	216.34
711.352	209.34
711.795	220.74
712.239	246.34
712.682	266.14
713.126	284.64
713.569	335.94
714.012	253.74
714.456	221.04
714.899	208.14
715.342	198.84
715.786	183.04
716.229	187.14
716.672	182.34
717.115	177.04
717.558	183.94
718.002	180.64
718.445	186.24
718.888	197.04
719.331	209.34
719.774	222.04
720.217	221.94
720.66	203.74
721.103	184.54
721.546	176.14
721.989	180.74
722.432	160.54
722.874	166.54
723.317	158.84
723.76	162.24
724.203	180.24
724.645	214.34
725.088	301.54
725.531	404.44
725.974	467.94
726.416	409.14
726.859	211.94
727.301	172.14
727.744	168.14
728.187	165.24
728.629	165.04
729.071	164.54
729.514	179.14
729.956	188.74
730.399	195.64
730.841	204.44
731.283	186.94
731.726	186.94
732.168	182.84
732.61	189.44
733.053	199.74
733.495	218.74
733.937	246.54
734.379	276.44
734.821	302.94
735.263	371.74
735.705	566.84
736.148	1074.64
736.59	1826.84
737.032	2300.64
737.474	1877.74
737.916	594.64
738.357	305.64
738.799	234.24
739.241	209.14
739.683	202.34
740.125	209.44
740.567	211.84
741.008	226.94
741.45	228.04
741.892	222.24
742.334	241.84
742.775	260.84
743.217	254.34
743.658	198.24
744.1	179.24
744.542	191.24
744.983	227.84
745.425	255.24
745.866	257.34
746.307	200.74
746.749	191.94
747.19	229.14
747.632	304.64
748.073	584.14
748.514	1273.14
748.956	2058.74
749.397	2591.04
749.838	2151.34
750.279	2241.84
750.72	1133.94
751.162	397.64
751.603	234.84
752.044	176.54
752.485	155.64
752.926	150.34
753.367	142.64
753.808	135.34
754.249	129.54
754.69	131.14
755.131	126.84
755.572	119.54
756.013	128.64
756.453	133.84
756.894	134.24
757.335	135.04
757.776	134.04
758.216	136.84
758.657	137.24
759.098	141.94
759.538	152.24
759.979	186.84
760.42	254.34
760.86	477.34
761.301	1248.94
761.741	3142.64
762.182	4987.34
762.622	3532.74
763.063	989.04
763.503	391.24
763.943	238.44
764.384	204.94
