Data from 20171114-ORNL-Ar_H_NY_Subt18_08-04-17-895.txt Node
Date: Tue Nov 14 08:04:17 EST 2017
User: Ender
Spectrometer: HR+D1039
Trigger mode: 0
Integration Time (sec): 2.730000E-2
Scans to average: 10
Electric dark correction enabled: true
Nonlinearity correction enabled: false
Boxcar width: 0
XAxis mode: Wavelengths
Number of Pixels in Spectrum: 2048
>>>>>Begin Spectral Data<<<<<
187.836	-4.5
188.309	-4.5
188.782	-4.5
189.255	2.9
189.728	-1
190.201	5.5
190.674	-1.5
191.147	-0.4
191.619	-1.1
192.092	4.9
192.565	4
193.038	-2.1
193.511	0.6
193.984	0.3
194.456	-4.6
194.929	2.6
195.402	-0.3
195.874	-5.3
196.347	-5.5
196.82	-1.6
197.292	7.6
197.765	-4.6
198.237	-3
198.71	3.4
199.182	-3.6
199.655	-0.4
200.127	6.9
200.6	-2.8
201.072	-3.5
201.544	-0.4
202.017	-0.3
202.489	6.7
202.961	-2
203.433	3.3
203.906	-6
204.378	-8.4
204.85	-6.2
205.322	-11.2
205.794	1.3
206.266	-6.2
206.739	-11.5
207.211	2.2
207.683	-4.9
208.155	-2.8
208.627	-5.5
209.099	-3.1
209.57	-9.6
210.042	-6.3
210.514	1.2
210.986	-1.9
211.458	-6.9
211.93	-1.1
212.402	-2.8
212.873	-3.7
213.345	-9.1
213.817	-15
214.288	-5.7
214.76	-8.7
215.232	-0.9
215.703	-0.1
216.175	-4.1
216.646	-4.5
217.118	-4
217.589	-0.2
218.061	-1
218.532	-1.1
219.004	-0.5
219.475	-2.7
219.946	-1.3
220.418	-5.8
220.889	4.1
221.36	-2.5
221.832	-4.4
222.303	-8.4
222.774	2.9
223.245	-6.4
223.717	-8.1
224.188	-0.3
224.659	-3.5
225.13	-5.1
225.601	-5.2
226.072	7.2
226.543	2.3
227.014	1.8
227.485	-4.1
227.956	-9.7
228.427	0.3
228.898	-0.3
229.369	-2.2
229.839	-2.9
230.31	-6.7
230.781	9.4
231.252	-5.8
231.722	-2
232.193	-1.5
232.664	-0.4
233.135	6
233.605	0.3
234.076	0.6
234.546	6.8
235.017	7.8
235.487	7.6
235.958	8.3
236.428	5.8
236.899	6.1
237.369	7.3
237.84	-8
238.31	9.7
238.78	6.3
239.251	3.4
239.721	5.8
240.191	2.5
240.662	-3
241.132	2.9
241.602	-0.5
242.072	-3.5
242.542	3.3
243.013	2.9
243.483	5.5
243.953	1.5
244.423	1.7
244.893	-2
245.363	2.6
245.833	11.8
246.303	4.1
246.773	13.2
247.243	6.6
247.712	9
248.182	10.9
248.652	9.5
249.122	-1.2
249.592	10.5
250.061	23.7
250.531	38.8
251.001	16.1
251.471	22
251.94	23.3
252.41	8.6
252.879	8.2
253.349	10.9
253.818	15.4
254.288	4.2
254.757	7.3
255.227	4.1
255.696	6.2
256.166	1.5
256.635	6.4
257.105	14.1
257.574	5.4
258.043	15.5
258.513	20.8
258.982	13.7
259.451	12.7
259.92	15.2
260.389	17.5
260.859	18.7
261.328	14.1
261.797	16.1
262.266	8
262.735	16.4
263.204	10.9
263.673	1.2
264.142	14.8
264.611	-4.1
265.08	3.2
265.549	-3.3
266.018	1.8
266.487	-1.1
266.955	1.9
267.424	1.1
267.893	7
268.362	2.6
268.83	8.1
269.299	6.7
269.768	8.6
270.236	6.7
270.705	5.7
271.174	7
271.642	11.5
272.111	6.6
272.579	14
273.048	24.6
273.516	25.8
273.985	29.9
274.453	23.7
274.922	23.3
275.39	14.3
275.858	4.5
276.327	9.1
276.795	21.2
277.263	9.3
277.731	29.3
278.2	50.8
278.668	55.7
279.136	46.9
279.604	17.6
280.072	13.3
280.54	10.9
281.008	8.9
281.477	14.5
281.945	18.7
282.413	14.4
282.881	18.2
283.348	11.7
283.816	17.3
284.284	8.4
284.752	20.9
285.22	12.8
285.688	17.8
286.156	19.3
286.623	45
287.091	47.3
287.559	31.5
288.026	17.8
288.494	18
288.962	7.9
289.429	8.5
289.897	18.9
290.364	17.9
290.832	18.9
291.3	20.2
291.767	12
292.234	23.6
292.702	8.3
293.169	22.9
293.637	23.3
294.104	18.4
294.571	11.2
295.039	14.5
295.506	11
295.973	16.1
296.44	14
296.908	18.2
297.375	21.7
297.842	16.9
298.309	15.5
298.776	16.1
299.243	23.5
299.71	15.8
300.177	20.9
300.644	20.4
301.111	24
301.578	26.4
302.045	16.7
302.512	24.7
302.979	31
303.446	20.5
303.913	12.5
304.379	12.4
304.846	26.6
305.313	24.7
305.78	20.3
306.246	22.7
306.713	26.9
307.18	23.1
307.646	21.6
308.113	29.2
308.579	27
309.046	27.6
309.512	25.8
309.979	17.7
310.445	27.3
310.912	27.9
311.378	30.1
311.845	26.8
312.311	32.7
312.777	30
313.244	27.1
313.71	33.9
314.176	24.4
314.642	26.5
315.109	30.3
315.575	33
316.041	34.3
316.507	33.1
316.973	37.1
317.439	32.8
317.905	34.5
318.371	31.2
318.837	31.1
319.303	26.9
319.769	31.5
320.235	34.2
320.701	31.4
321.167	39.8
321.633	39.5
322.099	44.8
322.564	42.7
323.03	41.8
323.496	33.7
323.962	39.1
324.427	27.9
324.893	41
325.359	33.8
325.824	39.1
326.29	30.7
326.755	31.1
327.221	34.9
327.686	31
328.152	45.8
328.617	42.1
329.083	44.9
329.548	45.9
330.014	45.2
330.479	33.3
330.944	42.4
331.41	37.5
331.875	43.5
332.34	49.6
332.805	38.2
333.271	43.8
333.736	40.3
334.201	45.4
334.666	50.9
335.131	49.1
335.596	41.9
336.061	50.8
336.526	35.7
336.991	45.5
337.456	47.8
337.921	52
338.386	42.2
338.851	40.7
339.316	47.7
339.781	40.6
340.246	46
340.711	42.4
341.175	46.6
341.64	45.6
342.105	46.4
342.569	48.7
343.034	54.6
343.499	53.7
343.963	50.5
344.428	63.1
344.893	63.3
345.357	58.9
345.822	60.1
346.286	61
346.751	64.6
347.215	61
347.679	64.6
348.144	88.3
348.608	76.5
349.073	63.8
349.537	66
350.001	70
350.465	74.7
350.93	73.9
351.394	74.8
351.858	67.6
352.322	82.4
352.786	73.6
353.25	87.9
353.715	97.9
354.179	89.4
354.643	108.5
355.107	116
355.571	98.3
356.035	91.6
356.498	105.3
356.962	98.4
357.426	115.7
357.89	100.2
358.354	84.6
358.818	72.1
359.281	76
359.745	71.6
360.209	68.7
360.673	69.5
361.136	73
361.6	71.8
362.064	73.7
362.527	77.1
362.991	77.9
363.454	71.9
363.918	67.3
364.381	70.7
364.845	69
365.308	72.2
365.772	78.1
366.235	83.7
366.698	73.5
367.162	77.9
367.625	80.8
368.088	81.2
368.552	86
369.015	78.6
369.478	90.1
369.941	90.7
370.404	88.3
370.867	93.2
371.331	98.3
371.794	101.7
372.257	95.3
372.72	107
373.183	104.3
373.646	91.9
374.109	92.9
374.572	100
375.035	93
375.497	96.9
375.96	101.2
376.423	98.1
376.886	103.7
377.349	104.9
377.811	91.4
378.274	90.6
378.737	96
379.199	104.3
379.662	104.3
380.125	109.5
380.587	104.2
381.05	111.2
381.512	121.5
381.975	126.7
382.437	120.9
382.9	118.6
383.362	117.1
383.825	124.4
384.287	135
384.75	126.4
385.212	122.6
385.674	127.2
386.136	121.1
386.599	111.7
387.061	116.4
387.523	116.3
387.985	120.1
388.447	132.1
388.91	131.4
389.372	145.7
389.834	137.4
390.296	129.3
390.758	137.7
391.22	146.5
391.682	184.3
392.144	266.3
392.606	203.4
393.068	152
393.529	154.3
393.991	138.8
394.453	137.6
394.915	137.9
395.377	168.4
395.838	197.8
396.3	144.9
396.762	125.3
397.224	118.9
397.685	118.5
398.147	116.6
398.608	118
399.07	113.9
399.531	122.7
399.993	128.6
400.454	137.9
400.916	135.7
401.377	132.7
401.839	137.1
402.3	134.8
402.762	152.6
403.223	158.7
403.684	156.5
404.145	145.7
404.607	145.8
405.068	152.8
405.529	149.1
405.99	164.9
406.451	148.4
406.913	155.5
407.374	150.8
407.835	149.1
408.296	154.2
408.757	152.8
409.218	166.2
409.679	155.8
410.14	157.2
410.601	156.7
411.062	167.3
411.522	172.2
411.983	163.5
412.444	151.4
412.905	159.4
413.366	168
413.826	167.5
414.287	186.3
414.748	236.8
415.208	225.4
415.669	188.8
416.13	182.8
416.59	181.6
417.051	196.2
417.511	193.5
417.972	218.8
418.432	220.5
418.893	259.1
419.353	225.6
419.814	180.1
420.274	159
420.734	157.3
421.195	176.7
421.655	173.9
422.115	175.3
422.576	169.5
423.036	179.6
423.496	185
423.956	194.8
424.416	205
424.876	240.4
425.336	236.8
425.797	240.1
426.257	232
426.717	208.1
427.177	204.1
427.637	199.4
428.097	208.6
428.556	218.2
429.016	241.3
429.476	233.4
429.936	243.1
430.396	254.7
430.856	259.3
431.315	285.2
431.775	315.8
432.235	333.8
432.694	315.9
433.154	324
433.614	342.6
434.073	298.3
434.533	250.7
434.993	235.8
435.452	254.7
435.912	257.7
436.371	252.5
436.83	247.1
437.29	238.9
437.749	220.5
438.209	223.6
438.668	230.9
439.127	247.8
439.587	229.4
440.046	217.9
440.505	222.6
440.964	244
441.424	278.5
441.883	269.5
442.342	226.7
442.801	192.6
443.26	196.6
443.719	195.9
444.178	191.2
444.637	188.8
445.096	188
445.555	200.8
446.014	200.8
446.473	207.7
446.932	201.7
447.391	204.8
447.849	209.2
448.308	195.9
448.767	200.5
449.226	208
449.685	209.6
450.143	221.9
450.602	206.7
451.061	207.5
451.519	210.2
451.978	211.5
452.436	204.4
452.895	209.9
453.353	228.5
453.812	216.5
454.27	216.1
454.729	216.9
455.187	209.5
455.646	223.8
456.104	214.1
456.562	224.6
457.021	237.3
457.479	227.5
457.937	235.3
458.395	231
458.854	220.8
459.312	223.7
459.77	237.2
460.228	227.6
460.686	212.4
461.144	222
461.602	219.9
462.06	213.6
462.518	224.6
462.976	224.1
463.434	224.8
463.892	224.1
464.35	245
464.808	256.3
465.266	238.4
465.724	240.6
466.181	245.7
466.639	237
467.097	250.4
467.555	263
468.012	271.5
468.47	273.1
468.928	292.7
469.385	294.4
469.843	307.7
470.3	309.4
470.758	316.8
471.215	333.7
471.673	359.1
472.13	355.8
472.588	369.5
473.045	333.4
473.503	332.8
473.96	348.2
474.417	351.4
474.875	383.2
475.332	415.3
475.789	399.7
476.246	405.3
476.704	439.1
477.161	443.5
477.618	463.1
478.075	493.6
478.532	547.5
478.989	604.4
479.446	696.3
479.903	683.5
480.36	722
480.817	768.6
481.274	870
481.731	970.6
482.188	1047.6
482.645	1174.1
483.102	1271.2
483.558	1382.6
484.015	1445.4
484.472	1425.1
484.929	1377.2
485.385	1341.2
485.842	1306.4
486.299	1225.8
486.755	1156.3
487.212	974.7
487.668	832.9
488.125	765.8
488.582	703.1
489.038	673
489.494	635.5
489.951	617.8
490.407	597.1
490.864	581.6
491.32	566.4
491.776	565.1
492.233	570.7
492.689	546.7
493.145	535.7
493.602	532.5
494.058	545.4
494.514	544.1
494.97	562.1
495.426	568.6
495.882	551.3
496.338	555.9
496.794	558.3
497.251	561.5
497.707	571.2
498.163	567.9
498.618	572.9
499.074	579.7
499.53	589.5
499.986	587.6
500.442	570.5
500.898	566.6
501.354	551.9
501.809	564.8
502.265	565.4
502.721	585.5
503.177	596
503.632	585
504.088	599
504.543	624.9
504.999	613.8
505.455	577.2
505.91	564.7
506.366	572.6
506.821	555.9
507.277	553.6
507.732	556.3
508.187	555.7
508.643	556.2
509.098	559.1
509.553	582.5
510.009	585.1
510.464	593.2
510.919	609.8
511.375	604.4
511.83	624.4
512.285	643.7
512.74	678.1
513.195	692.4
513.65	681.9
514.105	691.8
514.56	688.5
515.015	702.1
515.47	720.4
515.925	690.5
516.38	699.6
516.835	700.4
517.29	693.6
517.745	689.7
518.2	681.2
518.655	663.3
519.109	659.2
519.564	656.4
520.019	645.7
520.474	645.1
520.928	633.7
521.383	638.3
521.838	627.8
522.292	623.7
522.747	631.3
523.201	632.4
523.656	619.5
524.11	619.9
524.565	608
525.019	608.9
525.474	625.2
525.928	614.3
526.382	610
526.837	612.3
527.291	613.2
527.745	611.4
528.2	610.5
528.654	604.2
529.108	604.5
529.562	603.7
530.016	603.3
530.47	608.3
530.925	604.6
531.379	617.7
531.833	623.9
532.287	616.7
532.741	622.5
533.195	623.3
533.649	621.6
534.103	631.2
534.556	620.5
535.01	632
535.464	634
535.918	633.2
536.372	631.5
536.826	634.1
537.279	615.6
537.733	628.9
538.187	637.5
538.64	627
539.094	639.3
539.548	645.8
540.001	633
540.455	639.8
540.908	635.8
541.362	638.9
541.815	650.8
542.269	651.7
542.722	658.1
543.175	665.3
543.629	663.9
544.082	689.8
544.536	684.4
544.989	681.7
545.442	695.7
545.895	680.9
546.349	687.5
546.802	699.1
547.255	693.3
547.708	691.3
548.161	705
548.614	708.7
549.067	726.2
549.52	713.6
549.973	698.7
550.426	705.8
550.879	698.9
551.332	700.2
551.785	705
552.238	692.2
552.691	704.6
553.144	720.7
553.596	735.8
554.049	746.1
554.502	761.8
554.955	795.2
555.407	793.7
555.86	785.2
556.313	775.5
556.765	757.6
557.218	770.1
557.67	758.7
558.123	755.8
558.576	753.1
559.028	752.8
559.48	760.8
559.933	759.7
560.385	725.3
560.838	695.5
561.29	674.9
561.742	671.3
562.195	653.3
562.647	653.2
563.099	663.2
563.551	661.7
564.004	675.1
564.456	663.5
564.908	657.4
565.36	645.3
565.812	627.8
566.264	618
566.716	623.8
567.168	614.4
567.62	612.9
568.072	595.9
568.524	585.4
568.976	581.2
569.428	571.4
569.88	577.9
570.332	573.4
570.784	579.8
571.235	585.3
571.687	587.2
572.139	594.3
572.59	600.6
573.042	608.8
573.494	602.2
573.945	597.3
574.397	581.6
574.849	584.3
575.3	590.3
575.752	581.1
576.203	581.3
576.655	585.5
577.106	568
577.557	561.7
578.009	562.2
578.46	564.8
578.912	558.6
579.363	560.6
579.814	562.9
580.265	561
580.717	568.2
581.168	576.4
581.619	575.1
582.07	580.3
582.521	576.2
582.972	563
583.423	577.2
583.875	571.4
584.326	586
584.777	629.8
585.227	703.6
585.678	773.4
586.129	862.1
586.58	928.6
587.031	1006.1
587.482	1168.3
587.933	1331.4
588.384	1139
588.834	844.3
589.285	684
589.736	658.2
590.186	654.9
590.637	643.1
591.088	626.9
591.538	615.8
591.989	604.4
592.439	611.5
592.89	605
593.34	592.5
593.791	593.3
594.241	577.1
594.692	594.9
595.142	580.8
595.593	577.5
596.043	592.7
596.493	597.5
596.943	595.6
597.394	609.6
597.844	595.9
598.294	607.1
598.744	618.9
599.195	643.2
599.645	676.7
600.095	711.7
600.545	751.4
600.995	809.9
601.445	854
601.895	909
602.345	950.8
602.795	927.4
603.245	893.5
603.695	852.8
604.145	799.8
604.594	749.2
605.044	701.2
605.494	670.7
605.944	620.7
606.393	607.2
606.843	597.6
607.293	613.1
607.743	605.4
608.192	609.9
608.642	623.2
609.091	626.1
609.541	637.3
609.99	631.4
610.44	634.9
610.889	597.3
611.339	578.2
611.788	564.1
612.238	567
612.687	592
613.136	601.6
613.586	609.4
614.035	607
614.484	634.7
614.933	625.9
615.383	619.7
615.832	617.2
616.281	597.2
616.73	566.1
617.179	552
617.628	541.8
618.077	519.7
618.526	506
618.975	508
619.424	503.6
619.873	500.9
620.322	501.5
620.771	500.2
621.22	499.3
621.669	479
622.118	473.7
622.567	479.5
623.015	456.8
623.464	477.8
623.913	458.2
624.361	443.2
624.81	460.8
625.259	457.4
625.707	453.6
626.156	452.5
626.604	461.2
627.053	455.5
627.501	455.5
627.95	461.4
628.398	476.8
628.847	469.5
629.295	467.1
629.744	473.6
630.192	458.1
630.64	461
631.089	456.5
631.537	467.4
631.985	472.8
632.433	479.5
632.881	489
633.33	539.3
633.778	510.9
634.226	457.2
634.674	462.6
635.122	473.3
635.57	489.8
636.018	502.4
636.466	462.2
636.914	447.6
637.362	462
637.81	466.2
638.258	466.2
638.705	463.4
639.153	492.4
639.601	489.8
640.049	502.5
640.497	532.2
640.944	556.2
641.392	520.7
641.84	491.1
642.287	466
642.735	458.2
643.182	468.4
643.63	468.1
644.078	470
644.525	479.1
644.973	479.1
645.42	485.3
645.867	499.8
646.315	521.1
646.762	539.9
647.21	554
647.657	571
648.104	604.9
648.551	619.1
648.999	673.3
649.446	734.2
649.893	800.4
650.34	930.7
650.787	1107.7
651.234	1368
651.682	1773.8
652.129	2425
652.576	3494.1
653.023	5202.8
653.47	7216.6
653.917	9149.4
654.363	10724.2
654.81	12139.2
655.257	11515.3
655.704	7445.7
656.151	4346.3
656.598	2806.2
657.044	1998.7
657.491	1518.9
657.938	1213.5
658.385	1006.4
658.831	872.6
659.278	777.2
659.724	690.9
660.171	632
660.618	575.4
661.064	545.5
661.511	523.4
661.957	511.2
662.404	510.4
662.85	514
663.296	485.7
663.743	444.4
664.189	427.5
664.635	431.2
665.082	426.7
665.528	426
665.974	409
666.42	407.7
666.867	406.3
667.313	381
667.759	384.5
668.205	382.9
668.651	394.7
669.097	398
669.543	413.3
669.989	378.8
670.435	353.8
670.881	355.2
671.327	360
671.773	371
672.219	390
672.665	427.4
673.11	458.6
673.556	501.6
674.002	538.3
674.448	527.6
674.893	435.1
675.339	379.7
675.785	346.4
676.23	335.2
676.676	304
677.122	304.7
677.567	295.9
678.013	291.6
678.458	276.5
678.904	279.9
679.349	274.5
679.794	281.2
680.24	271.7
680.685	274.8
681.131	273.5
681.576	276.5
682.021	288.8
682.466	276.2
682.912	273.7
683.357	273.8
683.802	302.4
684.247	319.7
684.692	356.1
685.137	382.7
685.583	430.7
686.028	452.5
686.473	409.6
686.918	346.9
687.363	323.4
687.807	313.3
688.252	283.2
688.697	285
689.142	270.3
689.587	271.1
690.032	255.3
690.477	271.5
690.921	274.7
691.366	295.9
691.811	309.6
692.255	342.2
692.7	366
693.145	391.9
693.589	529.6
694.034	860.6
694.478	1193
694.923	1385.2
695.367	1853.8
695.812	955.3
696.256	401.6
696.701	289.2
697.145	271.5
697.59	258.7
698.034	254.7
698.478	260.9
698.922	249.6
699.367	256.2
699.811	270.1
700.255	285.5
700.699	305.3
701.143	329.5
701.588	369
702.032	410
702.476	410.2
702.92	383.5
703.364	374.2
703.808	481.4
704.252	785
704.696	1129.5
705.14	1343.4
705.584	1725.5
706.027	857.9
706.471	410
706.915	307
707.359	275.4
707.803	248
708.246	238.3
708.69	242.2
709.134	243.6
709.577	247.9
710.021	249.3
710.465	236.7
710.908	240.7
711.352	234.9
711.795	247.4
712.239	280.1
712.682	304.2
713.126	330.4
713.569	375.4
714.012	288.5
714.456	250.9
714.899	230.6
715.342	215.3
715.786	214.7
716.229	201.5
716.672	206.3
717.115	195.5
717.558	197
718.002	198.3
718.445	201.5
718.888	220.8
719.331	229.4
719.774	242.7
720.217	231.6
720.66	222.4
721.103	208.1
721.546	194.9
721.989	196.9
722.432	181.9
722.874	192.6
723.317	180.7
723.76	185.4
724.203	203.6
724.645	246.3
725.088	342.7
725.531	444.8
725.974	516.1
726.416	431.9
726.859	233.6
727.301	189.5
727.744	181.7
728.187	182.9
728.629	188.5
729.071	192.2
729.514	200.2
729.956	210.2
730.399	220.8
730.841	219.7
731.283	219.2
731.726	209
732.168	203.3
732.61	206.3
733.053	219.1
733.495	240
733.937	270.9
734.379	302
734.821	336.5
735.263	418.5
735.705	625.9
736.148	1194.5
736.59	2010.2
737.032	2491.5
737.474	2007.4
737.916	644.7
738.357	337
738.799	254.9
739.241	233.7
739.683	226.2
740.125	232.4
740.567	221.9
741.008	255.9
741.45	248.3
741.892	245
742.334	276.6
742.775	284.4
743.217	268.2
743.658	209.1
744.1	205.3
744.542	203
744.983	242.9
745.425	273
745.866	273.4
746.307	223.4
746.749	224.1
747.19	250.9
747.632	343.6
748.073	658.6
748.514	1424
748.956	2254.1
749.397	2807.7
749.838	2334.9
750.279	2416.2
750.72	1211.3
751.162	436.3
751.603	250.9
752.044	204.2
752.485	166.2
752.926	169.8
753.367	158.8
753.808	150.6
754.249	143.3
754.69	143.6
755.131	142.5
755.572	141.5
756.013	135.3
756.453	147.5
756.894	147.1
757.335	151.3
757.776	150
758.216	154.7
758.657	156.7
759.098	155.6
759.538	179.6
759.979	199.2
760.42	282
760.86	525.7
761.301	1369.1
761.741	3438.6
762.182	5338.3
762.622	3733.9
763.063	1058.9
763.503	429.3
763.943	269
764.384	269.6
764.824	332.8
765.264	367.4
765.705	255.1
766.145	161.2
766.585	141.2
767.025	138.2
767.465	140
767.906	196.1
768.346	262
768.786	286.5
769.226	204.9
769.666	245.4
770.106	457.9
770.546	1166.7
770.986	2126.2
771.426	1943.3
771.866	644.3
772.306	254.5
772.745	166.2
773.185	138.4
773.625	141.8
774.065	133.8
774.505	155.4
774.944	239.9
775.384	536
775.824	1014.7
776.263	1013.5
776.703	422.8
777.142	183.3
777.582	126.1
778.021	106.8
778.461	116.9
778.9	106.6
779.34	101.8
779.779	92.5
780.219	83.4
780.658	84.8
781.097	85
781.537	90.6
781.976	87.7
782.415	88.2
782.855	82.2
783.294	79.8
783.733	80.9
784.172	89.4
784.611	74.1
785.05	84.4
785.489	90.3
785.928	95.4
786.367	96.9
786.806	92.2
787.245	102
787.684	104.7
788.123	120.7
788.562	104.7
789.001	100.3
789.44	99.8
789.879	92.8
790.317	94
790.756	102.5
791.195	101.3
791.634	112.1
792.072	154.7
792.511	271.5
792.95	756.4
793.388	1714
793.827	1602.8
794.265	538.8
794.704	222.2
795.142	144.6
795.581	118.6
796.019	107.8
796.458	94
796.896	96.5
797.334	102.2
797.773	123.1
798.211	165.9
798.649	326.1
799.087	796.6
799.526	1263.6
799.964	1567
800.402	1661.1
800.84	612.2
801.278	233
801.716	144.4
802.154	118.5
802.592	117.2
803.03	104.1
803.468	101.5
803.906	109.7
804.344	118.1
804.782	112.6
805.22	108.5
805.658	103.3
806.096	117.4
806.533	126.4
806.971	140.6
807.409	167.9
807.847	241
808.284	496.5
808.722	1431.3
809.16	2655.7
