Data from 20171114-ORNL-Ar_H_NY_Subt18_08-03-32-581.txt Node
Date: Tue Nov 14 08:03:32 EST 2017
User: Ender
Spectrometer: HR+D1039
Trigger mode: 0
Integration Time (sec): 2.730000E-2
Scans to average: 10
Electric dark correction enabled: true
Nonlinearity correction enabled: false
Boxcar width: 0
XAxis mode: Wavelengths
Number of Pixels in Spectrum: 2048
>>>>>Begin Spectral Data<<<<<
187.836	-0.7
188.309	-0.7
188.782	-0.7
189.255	0.2
189.728	2.1
190.201	2.3
190.674	5.9
191.147	1.6
191.619	-5.8
192.092	-1.9
192.565	1.8
193.038	-1.1
193.511	-3.3
193.984	2.8
194.456	-3.5
194.929	1.2
195.402	-1.4
195.874	-0.2
196.347	-4.4
196.82	-7.2
197.292	4
197.765	-1.5
198.237	-5.2
198.71	3.1
199.182	-8.5
199.655	-1.3
200.127	0.2
200.6	-10.4
201.072	-10.1
201.544	-10
202.017	-2.7
202.489	-1.8
202.961	-5.4
203.433	-9.2
203.906	-10.9
204.378	-11.4
204.85	-3.4
205.322	-11.5
205.794	-2.6
206.266	-4.9
206.739	-13.9
207.211	4.1
207.683	-9.4
208.155	-4
208.627	-3.4
209.099	-3.9
209.57	-14.6
210.042	-8.1
210.514	-2.8
210.986	-1.7
211.458	-11.5
211.93	-5.5
212.402	1.3
212.873	-6.2
213.345	-11.9
213.817	-15.1
214.288	-3
214.76	-13.3
215.232	-9.8
215.703	-10.4
216.175	-5.6
216.646	-10.2
217.118	-9.8
217.589	-5.4
218.061	-8.4
218.532	-10.2
219.004	-4.9
219.475	-8.5
219.946	-9.8
220.418	-10.4
220.889	2.1
221.36	-2.6
221.832	-4.1
222.303	-8.9
222.774	-5.5
223.245	-17.3
223.717	-12.3
224.188	-8.7
224.659	-7.2
225.13	-5.6
225.601	-2.2
226.072	-0
226.543	-9
227.014	-5.7
227.485	-6
227.956	-6
228.427	-6.9
228.898	-1.9
229.369	0.1
229.839	-13
230.31	-13.2
230.781	-2.1
231.252	-4
231.722	-7.5
232.193	-7.4
232.664	-8.4
233.135	-5
233.605	-7
234.076	-14.7
234.546	-0.2
235.017	-1.2
235.487	-1.6
235.958	-11.4
236.428	-7.4
236.899	-7.6
237.369	-7.3
237.84	-12.5
238.31	-2.3
238.78	-4.8
239.251	-11.8
239.721	-12.9
240.191	-13.6
240.662	-5.3
241.132	-5.8
241.602	-11.4
242.072	-5.2
242.542	1.6
243.013	-4.6
243.483	-7.5
243.953	-5.6
244.423	-8.1
244.893	-13.7
245.363	-9.1
245.833	-1
246.303	-8.7
246.773	-1
247.243	-10.3
247.712	-7
248.182	1.3
248.652	0.2
249.122	-7.6
249.592	-6.1
250.061	-1.5
250.531	2.1
251.001	-10
251.471	0.4
251.94	2.6
252.41	-11.6
252.879	-13.7
253.349	-1.4
253.818	1.2
254.288	-2.1
254.757	-5.1
255.227	-11.2
255.696	-15.8
256.166	-3.4
256.635	0.7
257.105	-2.6
257.574	-3.6
258.043	-10.3
258.513	-9.5
258.982	-6
259.451	-11.6
259.92	-5.5
260.389	-4.4
260.859	1.7
261.328	-8.2
261.797	-4.5
262.266	-6.8
262.735	-2.7
263.204	-2.1
263.673	-9.6
264.142	0.2
264.611	-13
265.08	-11
265.549	-11.1
266.018	-5.1
266.487	-6.6
266.955	-14.3
267.424	-11.8
267.893	-1.1
268.362	-12.5
268.83	-10.8
269.299	-3.3
269.768	-7.4
270.236	-1.1
270.705	-11.8
271.174	-8.9
271.642	-4.5
272.111	-2.3
272.579	-6
273.048	-7.8
273.516	-4.9
273.985	-3.8
274.453	-6.4
274.922	-2.1
275.39	-8.3
275.858	-8.2
276.327	-4.9
276.795	2.6
277.263	-11
277.731	-1.1
278.2	-4.4
278.668	-8.4
279.136	0.5
279.604	-10.3
280.072	-3.4
280.54	-10.5
281.008	-8
281.477	-1.5
281.945	-1.3
282.413	-8
282.881	-2.5
283.348	-8.6
283.816	-3.6
284.284	-3.1
284.752	0.9
285.22	-4
285.688	-0.6
286.156	-8.7
286.623	-1.3
287.091	-12.3
287.559	-7.7
288.026	-0
288.494	-4.9
288.962	-12.4
289.429	-15.3
289.897	-2.1
290.364	-1.4
290.832	0.5
291.3	-2.2
291.767	-3.9
292.234	-2.5
292.702	-10.3
293.169	-1.4
293.637	1.5
294.104	-4.5
294.571	-10.5
295.039	-8.9
295.506	-13
295.973	-9.6
296.44	-8
296.908	-5.7
297.375	-7
297.842	-7.5
298.309	-5.3
298.776	-7.7
299.243	2
299.71	-13.7
300.177	-0.8
300.644	-2
301.111	-9.2
301.578	0.3
302.045	-9.9
302.512	1
302.979	3.8
303.446	2.4
303.913	-8
304.379	-6.2
304.846	0.9
305.313	-2.7
305.78	-6.4
306.246	-8.1
306.713	1
307.18	0.5
307.646	-0.7
308.113	-4.2
308.579	-0.6
309.046	-4.1
309.512	-0.1
309.979	-10.7
310.445	-0.3
310.912	-1.6
311.378	2.1
311.845	-0.9
312.311	-4.4
312.777	-4.3
313.244	-1.4
313.71	5.2
314.176	-1.6
314.642	-8.5
315.109	-6.4
315.575	-4.8
316.041	6
316.507	-7.5
316.973	0.9
317.439	-0
317.905	-0.4
318.371	-1.3
318.837	-4
319.303	-3.2
319.769	-6.1
320.235	-4.7
320.701	-1.9
321.167	-1
321.633	-7.8
322.099	-1.1
322.564	0.6
323.03	-1.3
323.496	-4.2
323.962	1.6
324.427	-3.9
324.893	1.3
325.359	-5.7
325.824	-2.6
326.29	-5.2
326.755	-3.1
327.221	-3.8
327.686	-1.6
328.152	1
328.617	-0.3
329.083	4.2
329.548	3.8
330.014	-0.6
330.479	-4.6
330.944	-1.9
331.41	-3.6
331.875	1.5
332.34	-2.8
332.805	2
333.271	-3.8
333.736	-4.9
334.201	3.9
334.666	4.9
335.131	0.9
335.596	-3.7
336.061	-1.3
336.526	-8.8
336.991	3.4
337.456	5.7
337.921	2
338.386	-4.9
338.851	-0.9
339.316	2.6
339.781	-2.5
340.246	6.5
340.711	-4.2
341.175	-0.3
341.64	-4.5
342.105	1.8
342.569	-0.6
343.034	5.3
343.499	-1.8
343.963	-2.4
344.428	7.1
344.893	-2.1
345.357	5.6
345.822	1.4
346.286	4.4
346.751	3.8
347.215	4.4
347.679	-7.1
348.144	1.1
348.608	6.6
349.073	2.3
349.537	4.4
350.001	2.4
350.465	11.7
350.93	1.1
351.394	8.9
351.858	-5.1
352.322	10.3
352.786	6
353.25	4.2
353.715	8.7
354.179	3.9
354.643	12.6
355.107	7.4
355.571	2.4
356.035	6.4
356.498	12.7
356.962	-1.9
357.426	16.8
357.89	9.2
358.354	6.4
358.818	5.3
359.281	7.7
359.745	5.2
360.209	5.5
360.673	3.6
361.136	3.2
361.6	11.1
362.064	-0.1
362.527	8.2
362.991	13.1
363.454	3.5
363.918	-2.5
364.381	-0.6
364.845	8.4
365.308	4.2
365.772	4.8
366.235	7.5
366.698	2.9
367.162	4.5
367.625	5.8
368.088	8.7
368.552	9.9
369.015	6.5
369.478	8.7
369.941	16.5
370.404	1.5
370.867	7.4
371.331	10
371.794	7.6
372.257	3.3
372.72	13.1
373.183	9.8
373.646	2
374.109	-0.9
374.572	4.6
375.035	6.4
375.497	6.5
375.96	5.6
376.423	4.2
376.886	5.1
377.349	7.1
377.811	2.4
378.274	7.6
378.737	3.3
379.199	9.6
379.662	14.8
380.125	9.8
380.587	6.1
381.05	4.3
381.512	3.1
381.975	4.5
382.437	8.9
382.9	9.9
383.362	14.8
383.825	7.8
384.287	3.7
384.75	13.4
385.212	15.5
385.674	14.7
386.136	9.9
386.599	12.9
387.061	12.1
387.523	8.4
387.985	8.9
388.447	19.3
388.91	16.6
389.372	8.8
389.834	17.1
390.296	12.6
390.758	17.5
391.22	16.6
391.682	17.1
392.144	11.9
392.606	16.9
393.068	20
393.529	23.3
393.991	15.4
394.453	16.3
394.915	12.1
395.377	10.5
395.838	13.3
396.3	16.8
396.762	18.2
397.224	15.1
397.685	5.8
398.147	10.6
398.608	4.2
399.07	9.9
399.531	11.8
399.993	11.8
400.454	22.5
400.916	19.7
401.377	8
401.839	18.1
402.3	5.1
402.762	23.9
403.223	24
403.684	20.3
404.145	18.2
404.607	12.5
405.068	17.5
405.529	14.2
405.99	17
406.451	9.3
406.913	17.3
407.374	17.2
407.835	15.6
408.296	15.2
408.757	15.3
409.218	17.8
409.679	16.2
410.14	27.1
410.601	16.9
411.062	19.7
411.522	22.2
411.983	11.8
412.444	9.1
412.905	25
413.366	20.8
413.826	24.1
414.287	27.3
414.748	43
415.208	41.6
415.669	32.5
416.13	32.5
416.59	34.5
417.051	31.8
417.511	30.6
417.972	30.6
418.432	38.6
418.893	54.5
419.353	40.3
419.814	29
420.274	26.7
420.734	31.2
421.195	28.6
421.655	19.5
422.115	21.8
422.576	20.2
423.036	25.2
423.496	27.7
423.956	32.4
424.416	35.1
424.876	36.2
425.336	26.8
425.797	31.9
426.257	27.5
426.717	26.2
427.177	34.1
427.637	22.2
428.097	27.5
428.556	18.7
429.016	32
429.476	20
429.936	28.4
430.396	25.8
430.856	27.8
431.315	32
431.775	30.7
432.235	44.2
432.694	32
433.154	36.3
433.614	34.8
434.073	32.9
434.533	33.1
434.993	28.8
435.452	31.1
435.912	29.8
436.371	26.6
436.83	26.4
437.29	26.8
437.749	28.1
438.209	27.2
438.668	27.7
439.127	31.1
439.587	34.9
440.046	28.7
440.505	31.3
440.964	31.8
441.424	32.5
441.883	27
442.342	34.2
442.801	24.2
443.26	29.9
443.719	27.2
444.178	24.5
444.637	18.6
445.096	24.4
445.555	30.5
446.014	26.4
446.473	32.4
446.932	24.8
447.391	24.8
447.849	25.4
448.308	26.1
448.767	20.1
449.226	25.7
449.685	22.3
450.143	36.3
450.602	35.6
451.061	21.4
451.519	30.6
451.978	24.8
452.436	27.2
452.895	27.5
453.353	27.2
453.812	28.5
454.27	33.4
454.729	34.6
455.187	24.4
455.646	30.3
456.104	31.8
456.562	33.1
457.021	29
457.479	33.5
457.937	33.1
458.395	33.6
458.854	27.6
459.312	32.5
459.77	26.4
460.228	28.9
460.686	28.3
461.144	30.7
461.602	33.8
462.06	33.2
462.518	30.7
462.976	30.9
463.434	30.2
463.892	28.3
464.35	28.5
464.808	37.7
465.266	24.7
465.724	33.6
466.181	34.7
466.639	29.7
467.097	34.8
467.555	36.3
468.012	37.8
468.47	38.6
468.928	39.6
469.385	46.8
469.843	43.6
470.3	45.3
470.758	37.1
471.215	42.3
471.673	45.1
472.13	45.9
472.588	49.1
473.045	42.3
473.503	40.2
473.96	41.6
474.417	45.1
474.875	52.7
475.332	55.1
475.789	50.3
476.246	50.7
476.704	50.6
477.161	52.1
477.618	42.6
478.075	59.8
478.532	61.8
478.989	58.6
479.446	66.6
479.903	66
480.36	62.6
480.817	49.5
481.274	64.2
481.731	57.9
482.188	58.4
482.645	65.2
483.102	63.5
483.558	63.4
484.015	63.3
484.472	73
484.929	66.2
485.385	63.8
485.842	72.8
486.299	78.4
486.755	77.8
487.212	72.1
487.668	66.3
488.125	67.9
488.582	70.2
489.038	63.3
489.494	62
489.951	59.8
490.407	70
490.864	59.5
491.32	62.3
491.776	70.1
492.233	70.5
492.689	56.5
493.145	64.5
493.602	63.7
494.058	67.1
494.514	67.9
494.97	72.2
495.426	72.8
495.882	65.7
496.338	68.5
496.794	77.8
497.251	60.5
497.707	73.4
498.163	70
498.618	69.6
499.074	71.2
499.53	81.9
499.986	78
500.442	66
500.898	72.3
501.354	66.6
501.809	76.4
502.265	73.6
502.721	76.2
503.177	78.8
503.632	79.9
504.088	80.5
504.543	87.7
504.999	85.3
505.455	76.3
505.91	73.1
506.366	71.1
506.821	73.8
507.277	72.9
507.732	73.9
508.187	72
508.643	77.5
509.098	64.3
509.553	78.2
510.009	76.5
510.464	71.6
510.919	80
511.375	73.4
511.83	86.2
512.285	84.4
512.74	98.2
513.195	90.6
513.65	94.7
514.105	94.3
514.56	94.1
515.015	100.5
515.47	98.4
515.925	92.3
516.38	96
516.835	109.6
517.29	93
517.745	100.7
518.2	92.3
518.655	91.5
519.109	93.9
519.564	88.7
520.019	78.4
520.474	71.4
520.928	81.1
521.383	78.3
521.838	75.8
522.292	78.4
522.747	88.3
523.201	86.9
523.656	75.7
524.11	78.3
524.565	74.9
525.019	77.3
525.474	75.5
525.928	77.1
526.382	74.7
526.837	76.3
527.291	75.1
527.745	74.7
528.2	81.4
528.654	81
529.108	69.1
529.562	68.9
530.016	70.3
530.47	71.5
530.925	73.7
531.379	68.5
531.833	76.2
532.287	70.8
532.741	68.8
533.195	74.5
533.649	72.3
534.103	70.6
534.556	73.7
535.01	65.7
535.464	65.7
535.918	76.8
536.372	74.6
536.826	74.6
537.279	74
537.733	75.5
538.187	69.1
538.64	79
539.094	75.4
539.548	74.8
540.001	69.7
540.455	71.1
540.908	73.6
541.362	75.4
541.815	78.5
542.269	86.6
542.722	73.4
543.175	79
543.629	73.1
544.082	81.9
544.536	83.9
544.989	83
545.442	87.4
545.895	86.2
546.349	92.1
546.802	87.5
547.255	95.8
547.708	93.9
548.161	90.9
548.614	99.5
549.067	96.5
549.52	89.4
549.973	92
550.426	84.2
550.879	76.5
551.332	81.5
551.785	83
552.238	86.4
552.691	88.8
553.144	88.7
553.596	85.5
554.049	84.4
554.502	105.3
554.955	103.2
555.407	103.6
555.86	93.8
556.313	100.9
556.765	98
557.218	94.6
557.67	98
558.123	93
558.576	89.4
559.028	95.7
559.48	99.5
559.933	94.6
560.385	86.6
560.838	81.1
561.29	79
561.742	78.7
562.195	75.7
562.647	81.4
563.099	78.1
563.551	81.5
564.004	87.1
564.456	77.4
564.908	76
565.36	68.4
565.812	74.2
566.264	66.9
566.716	73.8
567.168	70.9
567.62	71.4
568.072	63.3
568.524	65.8
568.976	63.1
569.428	61.4
569.88	61.4
570.332	62.6
570.784	63.7
571.235	62.4
571.687	60.5
572.139	66.5
572.59	73.5
573.042	69.2
573.494	63.6
573.945	67.1
574.397	56.5
574.849	71
575.3	60.2
575.752	61.2
576.203	53.9
576.655	60.1
577.106	59.2
577.557	55.6
578.009	62.7
578.46	58.9
578.912	58.8
579.363	58.7
579.814	59.2
580.265	48.5
580.717	56.2
581.168	53.8
581.619	65.9
582.07	64.5
582.521	58.4
582.972	51.7
583.423	57
583.875	52.8
584.326	56
584.777	68.6
585.227	64.8
585.678	58.1
586.129	62.8
586.58	74
587.031	71.9
587.482	76.5
587.933	80.6
588.384	69.2
588.834	70.2
589.285	72.5
589.736	74.2
590.186	75.7
590.637	69.2
591.088	69.2
591.538	71.6
591.989	64.4
592.439	74.3
592.89	66.9
593.34	56.3
593.791	62.7
594.241	55.9
594.692	61.9
595.142	60.5
595.593	58.7
596.043	62.9
596.493	60.2
596.943	63.1
597.394	62.2
597.844	57.2
598.294	57.1
598.744	65.8
599.195	69.2
599.645	82.6
600.095	87
600.545	102.5
600.995	110.6
601.445	119.4
601.895	128.1
602.345	143.1
602.795	135
603.245	108.5
603.695	99.6
604.145	83.6
604.594	85.4
605.044	76.4
605.494	59.3
605.944	59.6
606.393	61.3
606.843	61
607.293	64.9
607.743	65.7
608.192	67.4
608.642	71.4
609.091	70.6
609.541	70.1
609.99	62.5
610.44	62.2
610.889	58.8
611.339	57.1
611.788	53.3
612.238	61.8
612.687	73.2
613.136	64.3
613.586	67.4
614.035	59.3
614.484	54.5
614.933	60.8
615.383	63
615.832	68.7
616.281	65.6
616.73	62.2
617.179	60.9
617.628	61.7
618.077	49.7
618.526	46.2
618.975	47.8
619.424	54.9
619.873	50.6
620.322	56.6
620.771	47
621.22	49.9
621.669	50
622.118	46.1
622.567	45.2
623.015	42.9
623.464	47.6
623.913	40.9
624.361	38.8
624.81	41.1
625.259	38.2
625.707	43.9
626.156	34.8
626.604	46.5
627.053	45.8
627.501	38
627.95	51.2
628.398	47.8
628.847	43.5
629.295	38.9
629.744	48.8
630.192	50.3
630.64	44.8
631.089	36.7
631.537	42.7
631.985	35
632.433	44.3
632.881	33.2
633.33	41.9
633.778	32.1
634.226	37.2
634.674	42.1
635.122	43.2
635.57	39
636.018	43.3
636.466	47.9
636.914	36.9
637.362	53
637.81	48.3
638.258	45.1
638.705	40.5
639.153	48.8
639.601	50
640.049	50.4
640.497	56.5
640.944	65.7
641.392	43
641.84	46.2
642.287	39.4
642.735	32
643.182	38.2
643.63	35.2
644.078	29.5
644.525	35.2
644.973	34.1
645.42	27.8
645.867	37.5
646.315	35.7
646.762	35.1
647.21	39.1
647.657	22.6
648.104	38.7
648.551	33.7
648.999	34.7
649.446	34.4
649.893	30
650.34	32.2
650.787	32.8
651.234	40.5
651.682	32.4
652.129	33.4
652.576	36.7
653.023	43.4
653.47	52.1
653.917	38.8
654.363	51.5
654.81	46.8
655.257	41.6
655.704	45.7
656.151	33
656.598	32.6
657.044	33.5
657.491	31.3
657.938	33.5
658.385	30.1
658.831	39.7
659.278	46.8
659.724	27.4
660.171	33.8
660.618	30.7
661.064	34.5
661.511	33
661.957	35.4
662.404	29
662.85	34.7
663.296	34.8
663.743	34.8
664.189	31.1
664.635	31.9
665.082	31.9
665.528	36.8
665.974	33.1
666.42	28.6
666.867	30
667.313	27.4
667.759	30.8
668.205	24.9
668.651	32.9
669.097	30.9
669.543	21.4
669.989	25.4
670.435	30.1
670.881	23.5
671.327	28.4
671.773	36.8
672.219	38.3
672.665	44
673.11	52
673.556	51.7
674.002	62.9
674.448	55.1
674.893	41.4
675.339	39.1
675.785	31.7
676.23	29.1
676.676	17.6
677.122	25
677.567	23.2
678.013	27.5
678.458	15.3
678.904	19.1
679.349	14.9
679.794	23.3
680.24	29.1
680.685	18.4
681.131	25.3
681.576	23.5
682.021	30
682.466	15.5
682.912	16.8
683.357	16.2
683.802	25.1
684.247	25.4
684.692	36.2
685.137	38.6
685.583	50.8
686.028	58
686.473	43
686.918	38.9
687.363	34.8
687.807	25.8
688.252	27.8
688.697	29
689.142	24.2
689.587	20.2
690.032	13.8
690.477	25.3
690.921	15.9
691.366	26.4
691.811	28.6
692.255	37
692.7	42.3
693.145	40.6
693.589	64.8
694.034	132.3
694.478	187.2
694.923	227.2
695.367	305.8
695.812	137
696.256	40.7
696.701	27.3
697.145	23.5
697.59	18.4
698.034	26.6
698.478	30.4
698.922	27.4
699.367	22.9
699.811	28.1
700.255	29.7
700.699	37
701.143	38.8
701.588	39.5
702.032	53.8
702.476	41.5
702.92	36.6
703.364	33.7
703.808	51.7
704.252	109.4
704.696	172.9
705.14	204.9
705.584	290
706.027	130.3
706.471	45.6
706.915	27.6
707.359	21.5
707.803	14.5
708.246	19.1
708.69	29.1
709.134	30.3
709.577	21.7
710.021	30.6
710.465	26.7
710.908	24
711.352	15.6
711.795	19.7
712.239	26.2
712.682	21.6
713.126	32
713.569	39.9
714.012	36.4
714.456	23.9
714.899	26
715.342	11.2
715.786	15.1
716.229	15.8
716.672	14.5
717.115	13.3
717.558	13.8
718.002	10.5
718.445	14.9
718.888	27.8
719.331	23.7
719.774	32.1
720.217	26
720.66	21.7
721.103	18.3
721.546	12.7
721.989	16.1
722.432	2.1
722.874	16.8
723.317	3.9
723.76	6
724.203	16.2
724.645	28.8
725.088	40.1
725.531	49.5
725.974	64.4
726.416	50.1
726.859	27.3
727.301	16.5
727.744	19.2
728.187	12.3
728.629	16.1
729.071	14
729.514	21.6
729.956	20.7
730.399	19.6
730.841	20
731.283	11.8
731.726	21.8
732.168	13.8
732.61	20.9
733.053	20.4
733.495	26.3
733.937	29.4
734.379	33.2
734.821	33.1
735.263	52.8
735.705	92.6
736.148	185.5
736.59	330.1
737.032	402.7
737.474	322.3
737.916	80.3
738.357	34.3
738.799	20.9
739.241	22
739.683	18.9
740.125	19.8
740.567	12.7
741.008	27.1
741.45	28.8
741.892	31.1
742.334	32.8
742.775	29.9
743.217	27.3
743.658	13.1
744.1	18.3
744.542	18
744.983	19.1
745.425	20.5
745.866	24.5
746.307	18.1
746.749	19
747.19	26.9
747.632	39
748.073	85.6
748.514	234.8
748.956	366.9
749.397	455.9
749.838	386.8
750.279	408.5
750.72	180.9
751.162	49.9
751.603	26.4
752.044	14.7
752.485	16.2
752.926	12.7
753.367	14.9
753.808	9.7
754.249	15.6
754.69	2
755.131	14.1
755.572	9.5
756.013	6.4
756.453	16.7
756.894	8.6
757.335	12.5
757.776	9
758.216	12.2
758.657	10.2
759.098	0.3
759.538	10.4
759.979	11.6
760.42	19.9
760.86	56.5
761.301	207.8
761.741	545.7
762.182	861.6
762.622	591.2
763.063	149
763.503	45.6
763.943	26.3
764.384	21.9
764.824	11.2
765.264	11.2
765.705	15
766.145	1.2
766.585	7.2
767.025	7.3
767.465	-1.1
767.906	10.1
768.346	12.4
768.786	8.9
769.226	11.2
769.666	26.2
770.106	65.8
770.546	188.8
770.986	361.9
771.426	328.9
771.866	91.9
772.306	37.4
772.745	9.3
773.185	7
773.625	6
774.065	6.9
774.505	14.8
774.944	12
775.384	15.5
775.824	35.6
776.263	41.3
776.703	11
777.142	-0.9
777.582	-0.4
778.021	1.3
778.461	-1
778.9	8.8
779.34	7.3
779.779	-3.5
780.219	2.4
780.658	-1.2
781.097	3.9
781.537	6.2
781.976	4.8
782.415	1.2
782.855	0.7
783.294	1.3
783.733	3.3
784.172	9
784.611	1.4
785.05	4.8
785.489	7.4
785.928	2.5
786.367	5.9
786.806	3
787.245	8.7
787.684	1.1
788.123	13.6
788.562	5.5
789.001	10.4
789.44	7.6
789.879	6.9
790.317	3.4
790.756	3.8
791.195	0.3
791.634	5.7
792.072	23.6
792.511	31
792.95	116.5
793.388	279.7
793.827	255.4
794.265	70.7
794.704	24.3
795.142	14.7
795.581	17.6
796.019	11.1
796.458	5.5
796.896	2.7
797.334	2.8
797.773	18.4
798.211	18.1
798.649	46
799.087	130.7
799.526	207.8
799.964	268.7
800.402	285.8
800.84	91.5
801.278	22.4
801.716	19.5
802.154	10.4
802.592	11.6
803.03	7.8
803.468	-0.3
803.906	12.1
804.344	16.3
804.782	3.7
805.22	-2.4
805.658	3.2
806.096	11.8
806.533	11.3
806.971	8.4
807.409	13.6
807.847	21.1
808.284	58.3
808.722	229.5
809.16	441.9
809.597	378.7
810.035	706.6
810.472	797.8
810.91	254.1
811.347	88.5
811.785	39.3
812.222	27.8
812.66	10.1
813.097	8.3
813.535	8.4
813.972	0.2
814.409	9.2
814.846	-2
815.284	6.4
815.721	4.3
816.158	6.2
816.595	1.1
817.032	8.3
817.47	8.8
817.907	12.9
818.344	-1.1
818.781	-0.4
819.218	0.7
819.655	-1.1
820.092	7.5
820.529	8.5
820.966	2.6
821.403	9.2
821.839	8.2
822.276	1.1
822.713	7
823.15	3.5
823.587	4.4
824.023	7.7
824.46	24.8
824.897	111.2
825.333	187.6
825.77	71.6
826.206	19.8
826.643	13.1
827.08	12
827.516	2.7
827.953	-3.2
828.389	2.5
828.825	5.6
829.262	-0.3
829.698	-3.3
830.135	-2.9
830.571	-2.1
831.007	-0.1
831.443	1.3
831.88	3.3
832.316	3.4
832.752	-3.2
833.188	2.5
833.624	2.1
834.06	6.6
834.497	3.7
834.933	9.6
835.369	5.3
835.805	-1.2
836.241	1.4
836.677	-2.7
837.112	8.2
837.548	-2.7
837.984	8.9
838.42	2.3
838.856	50
839.292	196
839.727	323.3
840.163	123.7
840.599	99.2
841.034	265.4
841.47	290.6
841.906	94.2
