Data from 20171114-ORNL-Ar_H_NY_Subt18_08-04-20-352.txt Node
Date: Tue Nov 14 08:04:20 EST 2017
User: Ender
Spectrometer: HR+D1039
Trigger mode: 0
Integration Time (sec): 2.730000E-2
Scans to average: 10
Electric dark correction enabled: true
Nonlinearity correction enabled: false
Boxcar width: 0
XAxis mode: Wavelengths
Number of Pixels in Spectrum: 2048
>>>>>Begin Spectral Data<<<<<
187.836	-6.6
188.309	-6.6
188.782	-6.6
189.255	3.6
189.728	-0.1
190.201	2.4
190.674	-1.5
191.147	4.5
191.619	-4
192.092	4.1
192.565	2.9
193.038	-2.1
193.511	0.2
193.984	-3
194.456	1.1
194.929	0.2
195.402	-2.8
195.874	1.1
196.347	4.8
196.82	-11.9
197.292	6.3
197.765	-1
198.237	-3.4
198.71	8.5
199.182	2.7
199.655	0.4
200.127	5.1
200.6	-1
201.072	-6.1
201.544	4.1
202.017	-1.9
202.489	3.5
202.961	-2.1
203.433	-2.1
203.906	-6.4
204.378	-3.9
204.85	-2.5
205.322	-1.5
205.794	0
206.266	-0.7
206.739	-6
207.211	-3.4
207.683	-5.5
208.155	-0.9
208.627	-4.2
209.099	-1.9
209.57	-6.1
210.042	-4.2
210.514	-1.1
210.986	-5.1
211.458	-8.3
211.93	-4.5
212.402	1.3
212.873	0.1
213.345	-7.1
213.817	-9.2
214.288	-0.7
214.76	-9.1
215.232	1.2
215.703	0.5
216.175	4.3
216.646	-1.3
217.118	-5.2
217.589	-4.6
218.061	-6
218.532	-4
219.004	-7.1
219.475	-3.7
219.946	2
220.418	-4.1
220.889	2.3
221.36	1
221.832	-1.7
222.303	-0.1
222.774	0.7
223.245	-12
223.717	-7.8
224.188	2.6
224.659	-4.6
225.13	-9.3
225.601	-5
226.072	3.3
226.543	-6.2
227.014	-2.3
227.485	-2.8
227.956	-4.3
228.427	-1.1
228.898	4.9
229.369	8.6
229.839	0.4
230.31	-5.9
230.781	1.3
231.252	-1.4
231.722	-7.6
232.193	-5.3
232.664	4.4
233.135	7.4
233.605	4.9
234.076	-1.9
234.546	1.6
235.017	5.2
235.487	5
235.958	-0.3
236.428	-1.8
236.899	10.7
237.369	7.6
237.84	-3
238.31	13
238.78	4.7
239.251	-1.9
239.721	6.8
240.191	7.1
240.662	5.5
241.132	3.3
241.602	-4
242.072	5.2
242.542	3.8
243.013	0.8
243.483	6.7
243.953	1.1
244.423	-3.5
244.893	-4.6
245.363	4.7
245.833	2.1
246.303	-2.8
246.773	9.6
247.243	8.3
247.712	4.5
248.182	10.5
248.652	6.7
249.122	3
249.592	13.9
250.061	23.1
250.531	31.5
251.001	21.6
251.471	27.9
251.94	21.2
252.41	9.9
252.879	1.5
253.349	13.1
253.818	5.9
254.288	6.3
254.757	6.6
255.227	5.8
255.696	3.1
256.166	11.5
256.635	7
257.105	11.9
257.574	7.7
258.043	10.3
258.513	6.5
258.982	17.7
259.451	7.1
259.92	14.4
260.389	14
260.859	15
261.328	16.9
261.797	22
262.266	17.3
262.735	12.1
263.204	3.8
263.673	6.4
264.142	8.4
264.611	2.6
265.08	5
265.549	5.2
266.018	11.9
266.487	1.2
266.955	-5.8
267.424	3.5
267.893	11.7
268.362	5.2
268.83	6.1
269.299	13
269.768	10.5
270.236	13.9
270.705	4.8
271.174	5.4
271.642	9.8
272.111	12.3
272.579	18.8
273.048	18.3
273.516	23.5
273.985	25.8
274.453	28.8
274.922	23.6
275.39	10.7
275.858	3.8
276.327	12.4
276.795	20.9
277.263	8.4
277.731	33.5
278.2	58.5
278.668	59.2
279.136	49.3
279.604	24
280.072	17.5
280.54	8.7
281.008	8.8
281.477	13.6
281.945	10.9
282.413	13.4
282.881	11.9
283.348	4.8
283.816	17.2
284.284	18.7
284.752	22.6
285.22	14.5
285.688	10.8
286.156	20
286.623	45
287.091	52.8
287.559	31.4
288.026	20.6
288.494	16.2
288.962	7
289.429	13.7
289.897	17.5
290.364	17.1
290.832	20.2
291.3	18.6
291.767	17.5
292.234	19
292.702	15.8
293.169	17.9
293.637	20.2
294.104	19.4
294.571	4.9
295.039	13.2
295.506	15.1
295.973	18
296.44	15.9
296.908	21.5
297.375	19
297.842	16.2
298.309	14.2
298.776	15.7
299.243	17.1
299.71	13.9
300.177	21.2
300.644	24.6
301.111	15.1
301.578	25.2
302.045	18.6
302.512	21.7
302.979	29.2
303.446	23.8
303.913	21.2
304.379	19.2
304.846	28.7
305.313	22
305.78	20.6
306.246	22.2
306.713	27.1
307.18	22.6
307.646	29.5
308.113	30.8
308.579	20.6
309.046	29.6
309.512	26
309.979	19.3
310.445	25.3
310.912	28.2
311.378	30.4
311.845	29.1
312.311	32.6
312.777	26.6
313.244	32.9
313.71	34.5
314.176	28.3
314.642	34.9
315.109	27.4
315.575	40.8
316.041	35.5
316.507	33.2
316.973	31
317.439	34.7
317.905	30.8
318.371	36
318.837	33.4
319.303	26.9
319.769	34.9
320.235	31
320.701	37.4
321.167	34.6
321.633	34.8
322.099	43.7
322.564	46.8
323.03	38.4
323.496	36.8
323.962	37.4
324.427	35.4
324.893	47.2
325.359	39.1
325.824	34.1
326.29	38.4
326.755	37
327.221	37.4
327.686	36.7
328.152	45.7
328.617	48.2
329.083	47
329.548	49.9
330.014	49.9
330.479	39.8
330.944	40.4
331.41	41.1
331.875	40.8
332.34	40.9
332.805	41.9
333.271	45.9
333.736	44.7
334.201	49.2
334.666	50.8
335.131	52.2
335.596	50.9
336.061	51.4
336.526	45.7
336.991	47.8
337.456	57.7
337.921	52.2
338.386	41.6
338.851	40.3
339.316	44.9
339.781	41.3
340.246	51.2
340.711	45.3
341.175	51.7
341.64	42.6
342.105	48.4
342.569	47.5
343.034	58.3
343.499	54
343.963	50.6
344.428	64.4
344.893	55.9
345.357	58.5
345.822	51.6
346.286	66.8
346.751	67.2
347.215	67.6
347.679	70.6
348.144	84.1
348.608	73.1
349.073	57.9
349.537	60.4
350.001	69.7
350.465	73.5
350.93	75.4
351.394	77.8
351.858	74.5
352.322	82.3
352.786	76
353.25	94
353.715	103.2
354.179	89.1
354.643	110.7
355.107	112.9
355.571	100.2
356.035	94.9
356.498	102.6
356.962	113.5
357.426	118.3
357.89	103.5
358.354	85.8
358.818	79.7
359.281	80.8
359.745	79.5
360.209	79.8
360.673	71.7
361.136	78.3
361.6	77.5
362.064	79.8
362.527	77.4
362.991	89.3
363.454	72.6
363.918	70.8
364.381	72.8
364.845	77.2
365.308	83.2
365.772	83.9
366.235	78.5
366.698	77.1
367.162	74.8
367.625	81.6
368.088	82.1
368.552	86.8
369.015	82.3
369.478	93.7
369.941	95
370.404	87.1
370.867	96.9
371.331	99.8
371.794	106.4
372.257	105.5
372.72	110.4
373.183	102.4
373.646	98.6
374.109	92.7
374.572	98.3
375.035	99.3
375.497	107.6
375.96	97.2
376.423	99.1
376.886	99.9
377.349	102.7
377.811	91.9
378.274	98.1
378.737	98.5
379.199	104.7
379.662	110.3
380.125	106.1
380.587	107.7
381.05	115
381.512	120.9
381.975	121.2
382.437	118.7
382.9	118.3
383.362	128.8
383.825	127.9
384.287	142.8
384.75	126.7
385.212	123.3
385.674	124.4
386.136	123.8
386.599	115
387.061	116.4
387.523	118.4
387.985	119.8
388.447	135.9
388.91	128.7
389.372	143.1
389.834	138.1
390.296	133.1
390.758	139.6
391.22	149.9
391.682	184.9
392.144	268.2
392.606	211
393.068	152.3
393.529	156.1
393.991	153.2
394.453	131
394.915	140
395.377	176.5
395.838	188.7
396.3	149.9
396.762	131.7
397.224	119.5
397.685	119.1
398.147	117.3
398.608	116.5
399.07	120
399.531	122.1
399.993	125
400.454	143.7
400.916	135.3
401.377	126.8
401.839	138.4
402.3	140.3
402.762	154.3
403.223	165
403.684	159.6
404.145	143
404.607	143.6
405.068	149.4
405.529	154.1
405.99	173.5
406.451	161.8
406.913	162.1
407.374	152.1
407.835	146.9
408.296	152.4
408.757	155.5
409.218	172.1
409.679	160.5
410.14	162.8
410.601	168.5
411.062	170.8
411.522	177.9
411.983	176.4
412.444	154.9
412.905	168.7
413.366	168.7
413.826	180.8
414.287	201.6
414.748	238.1
415.208	228.2
415.669	195.6
416.13	190.5
416.59	183.9
417.051	198.1
417.511	203.8
417.972	216.7
418.432	226.8
418.893	261.1
419.353	229.1
419.814	181.4
420.274	167
420.734	165.3
421.195	184.5
421.655	178.1
422.115	177.1
422.576	181.1
423.036	187.5
423.496	186.4
423.956	193.2
424.416	212.8
424.876	240.1
425.336	238.2
425.797	235.4
426.257	242.5
426.717	218.8
427.177	207.6
427.637	203.5
428.097	213.6
428.556	225.6
429.016	246.8
429.476	239.6
429.936	242.6
430.396	251
430.856	259.2
431.315	291.7
431.775	309.4
432.235	340
432.694	318.1
433.154	330.5
433.614	351
434.073	304.9
434.533	262.7
434.993	243.9
435.452	252.1
435.912	266.6
436.371	255.6
436.83	253.9
437.29	239.4
437.749	222.6
438.209	222.4
438.668	247.2
439.127	253.6
439.587	239.2
440.046	225.1
440.505	228.9
440.964	249
441.424	277.6
441.883	268.1
442.342	236.5
442.801	211.3
443.26	201.2
443.719	209
444.178	203.6
444.637	196
445.096	202.5
445.555	202.8
446.014	205.2
446.473	209.1
446.932	215.6
447.391	200
447.849	208
448.308	193.5
448.767	199.8
449.226	217.3
449.685	220
450.143	226.2
450.602	218.7
451.061	209.9
451.519	209.2
451.978	213.3
452.436	222.2
452.895	217.6
453.353	225.2
453.812	221
454.27	229.3
454.729	221.7
455.187	217.5
455.646	219.1
456.104	223.8
456.562	224.4
457.021	240.4
457.479	232.7
457.937	244.7
458.395	235.3
458.854	219.8
459.312	229.8
459.77	248.3
460.228	228.3
460.686	223.1
461.144	226.4
461.602	225.8
462.06	230.4
462.518	231.9
462.976	233.3
463.434	236.2
463.892	242
464.35	253.8
464.808	265.5
465.266	251.3
465.724	244.7
466.181	244.7
466.639	247.9
467.097	258.6
467.555	266.7
468.012	272.5
468.47	284.7
468.928	302.9
469.385	309.4
469.843	306.5
470.3	304.7
470.758	326.2
471.215	339.1
471.673	364.5
472.13	367.9
472.588	374.2
473.045	344.1
473.503	347.6
473.96	355.5
474.417	370.5
474.875	393.1
475.332	423.7
475.789	414.6
476.246	421.7
476.704	433.1
477.161	455.2
477.618	469.4
478.075	498
478.532	555.4
478.989	610.1
479.446	716.4
479.903	701.7
480.36	735.7
480.817	796.8
481.274	886.7
481.731	968.9
482.188	1055.4
482.645	1182
483.102	1280.9
483.558	1406.4
484.015	1474.7
484.472	1449
484.929	1399.6
485.385	1345.7
485.842	1315
486.299	1258.3
486.755	1180.9
487.212	993.1
487.668	852.3
488.125	782.5
488.582	717
489.038	689.7
489.494	657.5
489.951	631.3
490.407	612.5
490.864	595.4
491.32	587.2
491.776	582.1
492.233	578.1
492.689	559
493.145	554.1
493.602	539.4
494.058	565.1
494.514	557.7
494.97	580
495.426	591.1
495.882	567
496.338	554.4
496.794	571.3
497.251	567.2
497.707	574.4
498.163	571.9
498.618	584.2
499.074	588.5
499.53	619.6
499.986	607.2
500.442	591.7
500.898	572.6
501.354	568.3
501.809	568.2
502.265	586.5
502.721	596.9
503.177	610.4
503.632	600.5
504.088	612.9
504.543	643.7
504.999	640.3
505.455	589.4
505.91	578.3
506.366	579
506.821	574.7
507.277	570.1
507.732	564.7
508.187	568.3
508.643	568.2
509.098	579.7
509.553	593.7
510.009	605.4
510.464	608.1
510.919	633.1
511.375	631.2
511.83	648
512.285	653.4
512.74	693
513.195	718.2
513.65	700.4
514.105	699.9
514.56	708.7
515.015	717.2
515.47	747.1
515.925	719.4
516.38	723.3
516.835	726.1
517.29	716.7
517.745	690.3
518.2	695.1
518.655	687.9
519.109	678.5
519.564	678.8
520.019	666.6
520.474	660.5
520.928	655.8
521.383	642
521.838	638.2
522.292	644.9
522.747	641.9
523.201	643.3
523.656	625.7
524.11	617.3
524.565	625
525.019	627.8
525.474	637.3
525.928	628.7
526.382	624.9
526.837	632.5
527.291	633.2
527.745	627.7
528.2	634.1
528.654	627.1
529.108	612.9
529.562	628.8
530.016	624.9
530.47	629
530.925	626
531.379	628.1
531.833	633
532.287	631.2
532.741	634.5
533.195	637.6
533.649	635.9
534.103	655.5
534.556	632.6
535.01	643.5
535.464	638.6
535.918	649.2
536.372	645.6
536.826	646.1
537.279	633.3
537.733	640.5
538.187	648.6
538.64	643.5
539.094	657.9
539.548	655.7
540.001	653.5
540.455	638.4
540.908	645.6
541.362	662.2
541.815	676
542.269	675.9
542.722	680
543.175	684
543.629	683.9
544.082	696.8
544.536	697.5
544.989	704.3
545.442	698.7
545.895	704.2
546.349	703.2
546.802	704.8
547.255	709.2
547.708	716.5
548.161	731.9
548.614	729.1
549.067	744.4
549.52	733.5
549.973	725.1
550.426	722.2
550.879	698.2
551.332	707.3
551.785	714.5
552.238	716.8
552.691	726.3
553.144	735.3
553.596	754.5
554.049	774.7
554.502	795.9
554.955	810.8
555.407	802.8
555.86	809.6
556.313	784.8
556.765	777.2
557.218	781.1
557.67	782.7
558.123	765.7
558.576	766.6
559.028	788
559.48	781
559.933	771.3
560.385	735.4
560.838	717.3
561.29	689.8
561.742	689.5
562.195	679.5
562.647	668.4
563.099	681.3
563.551	686.8
564.004	697
564.456	684.9
564.908	667.7
565.36	654.7
565.812	643.5
566.264	636.5
566.716	632.8
567.168	631
567.62	633.5
568.072	617.5
568.524	608.1
568.976	618.3
569.428	593.5
569.88	585.3
570.332	596.6
570.784	592.6
571.235	593.6
571.687	611.5
572.139	610.5
572.59	622.8
573.042	620
573.494	622.7
573.945	628.6
574.397	604.1
574.849	608
575.3	602
575.752	598.5
576.203	589.9
576.655	597.2
577.106	599.4
577.557	585.6
578.009	574
578.46	571
578.912	574.9
579.363	576.3
579.814	575.6
580.265	575.7
580.717	586.6
581.168	586.2
581.619	592.2
582.07	586.4
582.521	588.6
582.972	583.7
583.423	587.3
583.875	592.8
584.326	611.5
584.777	646.7
585.227	704.2
585.678	782.5
586.129	868.2
586.58	945.5
587.031	1007.6
587.482	1166.9
587.933	1319.3
588.384	1145.9
588.834	839.6
589.285	695.9
589.736	675.4
590.186	668.3
590.637	667
591.088	637.1
591.538	637.7
591.989	636.7
592.439	624.2
592.89	614.9
593.34	612.4
593.791	601.6
594.241	602.7
594.692	609.4
595.142	607.3
595.593	595.3
596.043	604.9
596.493	615.9
596.943	617.4
597.394	620.7
597.844	609.5
598.294	623.7
598.744	648
599.195	670.9
599.645	701.1
600.095	720.8
600.545	776.2
600.995	828
601.445	877.6
601.895	928.1
602.345	975
602.795	961.9
603.245	925.8
603.695	869.2
604.145	817.5
604.594	781.3
605.044	731.4
605.494	692.5
605.944	646.2
606.393	637.2
606.843	614.1
607.293	625.1
607.743	626.1
608.192	625.1
608.642	647
609.091	645.6
609.541	649
609.99	648.7
610.44	644.7
610.889	606.2
611.339	601.1
611.788	581.9
612.238	600.4
612.687	603.4
613.136	605.5
613.586	620.6
614.035	617.1
614.484	648.4
614.933	639.8
615.383	634.7
615.832	621.9
616.281	604.2
616.73	569.4
617.179	561.5
617.628	541.1
618.077	535.1
618.526	517.5
618.975	519.5
619.424	517.9
619.873	515.5
620.322	523.9
620.771	517.7
621.22	502
621.669	495.2
622.118	499.6
622.567	492.8
623.015	485.5
623.464	472.3
623.913	472.2
624.361	470.9
624.81	468.3
625.259	468.5
625.707	471.3
626.156	472.5
626.604	477.8
627.053	465.9
627.501	467.2
627.95	473.7
628.398	479.4
628.847	483
629.295	479.1
629.744	481.9
630.192	472.2
630.64	482.3
631.089	474.3
631.537	481.6
631.985	483.1
632.433	494.3
632.881	505.2
633.33	549.4
633.778	523.9
634.226	462
634.674	475.7
635.122	481.6
635.57	499.2
636.018	515.2
636.466	483.4
636.914	462.8
637.362	476.3
637.81	480.4
638.258	484.4
638.705	484.2
639.153	498.7
639.601	505.8
640.049	535.4
640.497	550.2
640.944	580.7
641.392	538
641.84	514.9
642.287	483.4
642.735	471.6
643.182	471.1
643.63	470.9
644.078	477.5
644.525	489.5
644.973	491.7
645.42	496.8
645.867	510.3
646.315	523.6
646.762	546.5
647.21	579.3
647.657	588
648.104	614
648.551	636.1
648.999	689.6
649.446	748.2
649.893	837.1
650.34	947.2
650.787	1129.9
651.234	1398.1
651.682	1810.9
652.129	2466.4
652.576	3563.9
653.023	5284.4
653.47	7311.4
653.917	9217.1
654.363	10830.7
654.81	12204.1
655.257	11643.6
655.704	7545.8
656.151	4428.3
656.598	2849.6
657.044	2013.5
657.491	1548.3
657.938	1232.4
658.385	1040.1
658.831	897.3
659.278	794.9
659.724	717.5
660.171	651.1
660.618	588
661.064	563.3
661.511	543.5
661.957	518.5
662.404	513.4
662.85	525.1
663.296	502.2
663.743	460.1
664.189	443.1
664.635	436.6
665.082	432.3
665.528	430.2
665.974	424.1
666.42	424.4
666.867	414.6
667.313	393.6
667.759	393.5
668.205	384
668.651	397.1
669.097	394.9
669.543	410.5
669.989	386.8
670.435	371.3
670.881	364.3
671.327	379.8
671.773	381.4
672.219	403.3
672.665	443.3
673.11	466.9
673.556	518.8
674.002	554.8
674.448	532.6
674.893	455
675.339	394.3
675.785	362.6
676.23	350.6
676.676	315.3
677.122	305
677.567	305.3
678.013	296.5
678.458	292.4
678.904	294.1
679.349	285.1
679.794	289.7
680.24	287.8
680.685	286
681.131	274.8
681.576	285.8
682.021	289.6
682.466	280.9
682.912	281.4
683.357	283.1
683.802	301.6
684.247	330.4
684.692	367.4
685.137	402.6
685.583	439.6
686.028	458.5
686.473	423
686.918	363
687.363	338.5
687.807	314
688.252	297.9
688.697	287.1
689.142	273.5
689.587	279
690.032	265.4
690.477	284.6
690.921	282.1
691.366	310.5
691.811	325.8
692.255	350.4
692.7	374.2
693.145	400.8
693.589	553
694.034	899.1
694.478	1244.6
694.923	1441.5
695.367	1906.1
695.812	991.9
696.256	410.7
696.701	296.7
697.145	273.2
697.59	268.3
698.034	257.9
698.478	268.9
698.922	261.9
699.367	267.7
699.811	271.4
700.255	287.5
700.699	304.9
701.143	346.3
701.588	384.4
702.032	426.8
702.476	418.1
702.92	392.5
703.364	398.3
703.808	500.1
704.252	809.1
704.696	1157.8
705.14	1381.6
705.584	1779
706.027	872.9
706.471	428.7
706.915	315.5
707.359	279.9
707.803	257.1
708.246	245.3
708.69	251.9
709.134	255.7
709.577	250.9
710.021	250
710.465	244.8
710.908	240.5
711.352	240.5
711.795	250.1
712.239	282.7
712.682	306.9
713.126	332
713.569	381.3
714.012	301.1
714.456	264.4
714.899	239.6
715.342	222.9
715.786	213.9
716.229	209.1
716.672	209.8
717.115	201.7
717.558	207
718.002	195.4
718.445	207
718.888	226.4
719.331	232.6
719.774	251.9
720.217	244.9
720.66	234.6
721.103	213.9
721.546	207.1
721.989	200
722.432	183
722.874	191.6
723.317	191.2
723.76	187.6
724.203	205
724.645	246.1
725.088	348.7
725.531	452.8
725.974	530.2
726.416	454.4
726.859	244.6
727.301	198.1
727.744	194.4
728.187	189.9
728.629	187.1
729.071	194.5
729.514	203.6
729.956	217.1
730.399	225.9
730.841	229.4
731.283	224.7
731.726	213
732.168	208
732.61	213.5
733.053	230.1
733.495	253.1
733.937	281.7
734.379	322.5
734.821	342.3
735.263	431
735.705	662.9
736.148	1230.3
736.59	2072.8
737.032	2537.9
737.474	2082
737.916	661.6
738.357	343.6
738.799	263.3
739.241	245.2
739.683	219.6
740.125	238.2
740.567	245.8
741.008	259
741.45	254.8
741.892	257.9
742.334	285.3
742.775	293.2
743.217	277.5
743.658	215.5
744.1	206.6
744.542	204.5
744.983	245.2
745.425	275
745.866	285.8
746.307	232.3
746.749	226
747.19	258.6
747.632	355.4
748.073	675
748.514	1457.7
748.956	2295.7
749.397	2902.5
749.838	2401.4
750.279	2474.6
750.72	1233.1
751.162	444.3
751.603	254.6
752.044	204.9
752.485	173.6
752.926	168.4
753.367	168.9
753.808	154.9
754.249	149
754.69	150.3
755.131	139.2
755.572	148.2
756.013	149.9
756.453	153.9
756.894	161
757.335	152.7
757.776	148.4
758.216	153.8
758.657	158.1
759.098	164.9
759.538	179.2
759.979	212.3
760.42	287.2
760.86	542.2
761.301	1402.5
761.741	3520.6
762.182	5473.1
762.622	3854.2
763.063	1085.8
763.503	441.4
763.943	279.3
764.384	277.2
764.824	333.1
765.264	365.2
765.705	249.7
766.145	169.2
766.585	155.4
767.025	139.4
767.465	144.6
767.906	191.4
768.346	253.2
768.786	285.5
769.226	209.8
769.666	247.8
770.106	472
770.546	1213.6
770.986	2188.1
771.426	1997.8
771.866	647.4
772.306	266.2
772.745	168.9
773.185	138.5
773.625	134.8
774.065	133.6
774.505	155.3
774.944	236
775.384	513.6
775.824	999.4
776.263	994.4
776.703	414.9
777.142	179.8
777.582	125.7
778.021	109.7
778.461	114.1
778.9	111.9
779.34	106.3
779.779	89.1
780.219	87.6
780.658	90.1
781.097	89
781.537	88
781.976	88.9
782.415	85.2
782.855	88.9
783.294	82.6
783.733	89.8
784.172	86.8
784.611	80.3
785.05	82.2
785.489	96.3
785.928	92.1
786.367	96.9
786.806	91.8
787.245	100
787.684	104.7
788.123	113.8
788.562	111.3
789.001	103.1
789.44	101.2
789.879	94.2
790.317	97.3
790.756	107.6
791.195	106.4
791.634	120.5
792.072	165.4
792.511	286.6
792.95	770.1
793.388	1754
793.827	1649.1
794.265	555.9
794.704	224.5
795.142	144.6
795.581	118.6
796.019	116.3
796.458	104.3
796.896	96.4
797.334	106.6
797.773	130.5
798.211	178.6
798.649	342.3
799.087	810.5
799.526	1280.1
799.964	1620.8
800.402	1694.7
800.84	621.8
801.278	237.6
801.716	150.5
802.154	120
802.592	114.6
803.03	109.5
803.468	103.8
803.906	117.1
804.344	123.2
804.782	114.5
805.22	108.9
805.658	115
806.096	120
806.533	121.1
806.971	147.5
807.409	180.3
807.847	248.5
808.284	505.9
808.722	1481
809.16	2733.5
