Data from 20171114-ORNL-Ar_H_NY_Subt18_08-03-31-762.txt Node
Date: Tue Nov 14 08:03:31 EST 2017
User: Ender
Spectrometer: HR+D1039
Trigger mode: 0
Integration Time (sec): 2.730000E-2
Scans to average: 10
Electric dark correction enabled: true
Nonlinearity correction enabled: false
Boxcar width: 0
XAxis mode: Wavelengths
Number of Pixels in Spectrum: 2048
>>>>>Begin Spectral Data<<<<<
187.836	-4.39
188.309	-4.39
188.782	-4.39
189.255	3.51
189.728	-4.09
190.201	4.41
190.674	1.31
191.147	5.61
191.619	-7.69
192.092	1.31
192.565	4.01
193.038	4.61
193.511	-0.29
193.984	0.31
194.456	-4.89
194.929	1.21
195.402	-2.29
195.874	-2.69
196.347	-1.89
196.82	-9.79
197.292	2.91
197.765	1.21
198.237	-6.09
198.71	2.01
199.182	-0.29
199.655	1.41
200.127	4.31
200.6	-7.09
201.072	-5.49
201.544	1.71
202.017	-3.09
202.489	1.71
202.961	-5.19
203.433	-5.69
203.906	-6.89
204.378	-7.29
204.85	-3.49
205.322	-8.89
205.794	-5.99
206.266	-8.29
206.739	-12.49
207.211	1.81
207.683	-9.79
208.155	-6.89
208.627	-7.79
209.099	-1.99
209.57	-5.59
210.042	-2.99
210.514	-5.39
210.986	-2.49
211.458	-9.89
211.93	-4.49
212.402	1.41
212.873	-10.19
213.345	-11.49
213.817	-6.99
214.288	-1.19
214.76	-8.39
215.232	-0.89
215.703	-3.49
216.175	-1.49
216.646	-9.79
217.118	-11.19
217.589	-5.79
218.061	-0.89
218.532	-4.49
219.004	-4.59
219.475	-4.49
219.946	-9.49
220.418	-9.49
220.889	-1.69
221.36	1.01
221.832	-7.89
222.303	-6.89
222.774	-2.89
223.245	-10.29
223.717	-8.79
224.188	-3.99
224.659	-9.29
225.13	-8.49
225.601	-8.99
226.072	-3.19
226.543	-1.89
227.014	-5.99
227.485	-2.59
227.956	-8.99
228.427	-4.39
228.898	0.71
229.369	2.91
229.839	-0.09
230.31	-4.29
230.781	4.01
231.252	-8.29
231.722	-5.89
232.193	-7.99
232.664	-5.99
233.135	-4.29
233.605	-9.39
234.076	-8.39
234.546	-1.59
235.017	-1.69
235.487	-2.19
235.958	-9.29
236.428	-10.99
236.899	-4.09
237.369	-7.49
237.84	-9.59
238.31	-0.19
238.78	-7.39
239.251	-6.19
239.721	-7.09
240.191	-8.79
240.662	-3.49
241.132	-6.49
241.602	-6.09
242.072	-3.99
242.542	-2.79
243.013	-12.79
243.483	-0.39
243.953	-4.59
244.423	-3.49
244.893	-9.29
245.363	-4.99
245.833	-3.49
246.303	-7.09
246.773	1.11
247.243	-6.59
247.712	-5.09
248.182	4.31
248.652	0.51
249.122	-12.99
249.592	-6.79
250.061	-2.49
250.531	3.71
251.001	-4.29
251.471	-3.69
251.94	-0.39
252.41	-4.89
252.879	-8.89
253.349	3.91
253.818	4.01
254.288	-3.49
254.757	-3.49
255.227	-5.19
255.696	-6.69
256.166	-5.89
256.635	-5.99
257.105	-4.19
257.574	-5.59
258.043	-9.19
258.513	-10.29
258.982	-6.79
259.451	-8.79
259.92	-4.29
260.389	-7.39
260.859	-0.09
261.328	0.31
261.797	-2.79
262.266	-3.49
262.735	-0.59
263.204	0.11
263.673	-9.99
264.142	-4.09
264.611	-5.89
265.08	-9.69
265.549	-3.89
266.018	-2.69
266.487	-8.19
266.955	-12.79
267.424	-4.49
267.893	-0.59
268.362	-13.59
268.83	-5.69
269.299	-2.09
269.768	-4.99
270.236	-4.29
270.705	-8.69
271.174	-8.39
271.642	-5.29
272.111	-2.89
272.579	-4.19
273.048	-8.79
273.516	-4.49
273.985	-4.99
274.453	2.11
274.922	-1.09
275.39	-2.59
275.858	-9.79
276.327	-2.79
276.795	4.91
277.263	-9.69
277.731	0.51
278.2	-9.49
278.668	-4.09
279.136	-5.09
279.604	-2.39
280.072	-2.39
280.54	-0.19
281.008	-1.69
281.477	-1.19
281.945	-3.59
282.413	-3.59
282.881	0.21
283.348	-3.49
283.816	-5.39
284.284	-0.89
284.752	0.71
285.22	-3.09
285.688	0.31
286.156	-6.09
286.623	-1.89
287.091	-9.89
287.559	2.61
288.026	-4.99
288.494	1.21
288.962	-13.59
289.429	-6.39
289.897	1.21
290.364	-7.29
290.832	-0.39
291.3	-0.09
291.767	-3.19
292.234	1.51
292.702	-8.49
293.169	-4.79
293.637	-3.49
294.104	-6.49
294.571	-9.39
295.039	-7.79
295.506	-2.59
295.973	-0.49
296.44	-3.59
296.908	-2.49
297.375	-2.09
297.842	-2.39
298.309	-6.89
298.776	-13.49
299.243	-7.89
299.71	-14.09
300.177	3.21
300.644	-7.19
301.111	-5.59
301.578	-3.19
302.045	-6.29
302.512	1.91
302.979	-1.99
303.446	-7.49
303.913	-7.39
304.379	-10.29
304.846	4.11
305.313	-2.79
305.78	-6.19
306.246	-1.89
306.713	-4.59
307.18	-1.19
307.646	-5.69
308.113	0.31
308.579	-3.39
309.046	-4.09
309.512	1.31
309.979	-5.89
310.445	4.21
310.912	-4.09
311.378	-2.79
311.845	1.51
312.311	-2.79
312.777	-4.39
313.244	-6.29
313.71	2.21
314.176	-6.29
314.642	-11.09
315.109	-1.89
315.575	-1.79
316.041	-5.89
316.507	-8.29
316.973	-6.49
317.439	2.01
317.905	2.71
318.371	0.91
318.837	-0.09
319.303	-2.49
319.769	-1.79
320.235	0.41
320.701	1.51
321.167	-1.09
321.633	-5.09
322.099	-3.79
322.564	2.11
323.03	0.11
323.496	-1.69
323.962	-3.89
324.427	-1.09
324.893	3.01
325.359	-3.59
325.824	-3.69
326.29	-7.49
326.755	-6.19
327.221	-6.59
327.686	-4.99
328.152	-3.19
328.617	-5.79
329.083	1.81
329.548	5.51
330.014	3.81
330.479	-2.59
330.944	2.11
331.41	0.51
331.875	-3.69
332.34	-2.09
332.805	-6.79
333.271	-5.39
333.736	-14.09
334.201	-1.09
334.666	-2.29
335.131	1.11
335.596	3.61
336.061	-1.59
336.526	-11.49
336.991	-4.69
337.456	9.61
337.921	-5.69
338.386	-8.69
338.851	-5.49
339.316	-1.09
339.781	-2.09
340.246	3.51
340.711	-7.79
341.175	1.81
341.64	-9.49
342.105	-4.59
342.569	-0.89
343.034	3.71
343.499	-0.79
343.963	-1.79
344.428	5.91
344.893	1.91
345.357	-1.49
345.822	3.41
346.286	5.61
346.751	1.61
347.215	-4.39
347.679	-0.09
348.144	5.01
348.608	0.11
349.073	-0.59
349.537	1.91
350.001	-2.49
350.465	7.21
350.93	-1.19
351.394	5.51
351.858	1.91
352.322	8.41
352.786	3.21
353.25	2.61
353.715	7.01
354.179	2.51
354.643	7.91
355.107	4.41
355.571	7.81
356.035	2.21
356.498	4.11
356.962	-5.29
357.426	9.31
357.89	1.51
358.354	5.41
358.818	0.71
359.281	1.91
359.745	-3.99
360.209	1.11
360.673	-3.49
361.136	2.31
361.6	3.11
362.064	1.11
362.527	6.81
362.991	10.81
363.454	-6.89
363.918	-10.59
364.381	4.51
364.845	2.21
365.308	5.31
365.772	6.71
366.235	6.21
366.698	1.21
367.162	-0.79
367.625	-1.39
368.088	2.71
368.552	1.21
369.015	-3.99
369.478	3.81
369.941	8.41
370.404	0.01
370.867	1.31
371.331	4.21
371.794	-0.19
372.257	-8.79
372.72	1.41
373.183	6.81
373.646	2.91
374.109	-1.39
374.572	0.71
375.035	-1.59
375.497	6.41
375.96	6.41
376.423	0.01
376.886	8.01
377.349	-0.79
377.811	-7.49
378.274	-4.19
378.737	2.81
379.199	1.51
379.662	0.21
380.125	0.31
380.587	-5.59
381.05	-1.89
381.512	-0.79
381.975	3.91
382.437	1.61
382.9	0.51
383.362	8.61
383.825	-4.59
384.287	2.11
384.75	-2.59
385.212	9.51
385.674	0.71
386.136	9.01
386.599	3.01
387.061	6.91
387.523	5.61
387.985	4.61
388.447	15.21
388.91	0.91
389.372	3.91
389.834	4.91
390.296	8.21
390.758	7.11
391.22	5.01
391.682	8.21
392.144	9.31
392.606	10.01
393.068	6.61
393.529	10.61
393.991	-2.09
394.453	-2.89
394.915	8.01
395.377	6.71
395.838	-2.69
396.3	6.41
396.762	10.21
397.224	9.01
397.685	2.21
398.147	3.51
398.608	2.41
399.07	-0.69
399.531	-1.19
399.993	5.11
400.454	9.01
400.916	4.91
401.377	2.71
401.839	0.51
402.3	-1.09
402.762	5.11
403.223	12.41
403.684	6.11
404.145	3.91
404.607	6.11
405.068	4.31
405.529	-1.69
405.99	2.31
406.451	-2.19
406.913	8.21
407.374	8.61
407.835	9.31
408.296	5.61
408.757	6.51
409.218	5.21
409.679	1.41
410.14	8.01
410.601	14.41
411.062	23.01
411.522	10.41
411.983	3.11
412.444	-3.19
412.905	11.51
413.366	4.01
413.826	11.81
414.287	6.31
414.748	20.51
415.208	18.41
415.669	14.11
416.13	15.11
416.59	12.11
417.051	15.01
417.511	12.51
417.972	14.31
418.432	14.71
418.893	28.51
419.353	18.91
419.814	15.61
420.274	8.51
420.734	5.01
421.195	8.51
421.655	7.41
422.115	6.41
422.576	8.81
423.036	8.51
423.496	13.41
423.956	14.11
424.416	16.21
424.876	17.91
425.336	13.51
425.797	19.01
426.257	10.11
426.717	5.11
427.177	16.81
427.637	13.61
428.097	8.91
428.556	11.31
429.016	11.91
429.476	4.21
429.936	15.21
430.396	10.91
430.856	5.91
431.315	13.61
431.775	19.41
432.235	18.01
432.694	9.31
433.154	16.11
433.614	19.01
434.073	10.41
434.533	14.41
434.993	9.31
435.452	16.81
435.912	11.21
436.371	9.91
436.83	8.51
437.29	14.21
437.749	10.21
438.209	7.01
438.668	11.11
439.127	17.81
439.587	14.01
440.046	11.11
440.505	12.11
440.964	14.11
441.424	11.71
441.883	11.61
442.342	19.61
442.801	15.91
443.26	13.01
443.719	13.81
444.178	11.81
444.637	1.11
445.096	10.61
445.555	6.21
446.014	19.41
446.473	22.21
446.932	11.01
447.391	12.81
447.849	14.01
448.308	10.51
448.767	3.11
449.226	16.11
449.685	12.51
450.143	22.61
450.602	10.11
451.061	10.31
451.519	13.11
451.978	8.61
452.436	10.81
452.895	11.21
453.353	12.81
453.812	11.91
454.27	13.61
454.729	19.01
455.187	10.81
455.646	18.01
456.104	13.41
456.562	12.61
457.021	13.81
457.479	13.81
457.937	14.01
458.395	15.51
458.854	3.61
459.312	6.71
459.77	11.41
460.228	6.51
460.686	0.41
461.144	13.71
461.602	10.01
462.06	12.41
462.518	19.21
462.976	16.11
463.434	17.41
463.892	12.31
464.35	4.01
464.808	17.31
465.266	9.81
465.724	16.51
466.181	12.51
466.639	15.81
467.097	18.71
467.555	19.61
468.012	20.61
468.47	17.81
468.928	20.31
469.385	24.71
469.843	18.31
470.3	20.51
470.758	20.11
471.215	22.61
471.673	21.51
472.13	17.51
472.588	25.11
473.045	12.81
473.503	19.21
473.96	15.51
474.417	21.81
474.875	21.51
475.332	29.11
475.789	28.21
476.246	19.61
476.704	28.51
477.161	16.31
477.618	17.11
478.075	27.01
478.532	30.51
478.989	27.71
479.446	29.91
479.903	34.61
480.36	34.01
480.817	24.11
481.274	27.51
481.731	31.21
482.188	17.41
482.645	32.01
483.102	28.41
483.558	29.91
484.015	33.41
484.472	33.51
484.929	33.41
485.385	31.71
485.842	37.51
486.299	38.91
486.755	40.81
487.212	37.61
487.668	23.91
488.125	35.31
488.582	32.11
489.038	28.91
489.494	26.11
489.951	29.61
490.407	26.71
490.864	24.31
491.32	35.81
491.776	29.01
492.233	35.71
492.689	21.41
493.145	23.51
493.602	24.51
494.058	35.51
494.514	30.51
494.97	32.81
495.426	27.21
495.882	35.81
496.338	27.01
496.794	31.71
497.251	26.91
497.707	25.71
498.163	26.91
498.618	33.21
499.074	33.91
499.53	30.11
499.986	34.71
500.442	28.31
500.898	27.71
501.354	28.31
501.809	28.91
502.265	29.61
502.721	37.61
503.177	37.41
503.632	39.71
504.088	37.91
504.543	37.51
504.999	38.91
505.455	31.11
505.91	27.91
506.366	28.81
506.821	31.11
507.277	28.51
507.732	34.01
508.187	30.91
508.643	35.91
509.098	33.91
509.553	40.51
510.009	36.61
510.464	36.01
510.919	46.51
511.375	36.21
511.83	36.91
512.285	37.71
512.74	40.71
513.195	44.31
513.65	43.11
514.105	42.41
514.56	43.01
515.015	47.51
515.47	51.71
515.925	41.91
516.38	42.81
516.835	55.71
517.29	45.91
517.745	46.61
518.2	39.61
518.655	44.41
519.109	35.81
519.564	37.61
520.019	37.41
520.474	39.01
520.928	39.81
521.383	37.81
521.838	29.21
522.292	35.31
522.747	46.11
523.201	40.61
523.656	37.21
524.11	37.81
524.565	33.21
525.019	28.01
525.474	35.51
525.928	32.01
526.382	34.71
526.837	30.51
527.291	34.31
527.745	32.11
528.2	31.61
528.654	33.41
529.108	29.01
529.562	21.31
530.016	33.61
530.47	26.71
530.925	30.01
531.379	28.51
531.833	30.91
532.287	29.01
532.741	31.41
533.195	27.61
533.649	29.71
534.103	34.61
534.556	27.71
535.01	29.31
535.464	23.11
535.918	34.31
536.372	28.91
536.826	40.81
537.279	30.51
537.733	32.11
538.187	26.21
538.64	34.51
539.094	35.51
539.548	35.61
540.001	30.51
540.455	29.41
540.908	34.91
541.362	34.41
541.815	37.81
542.269	40.01
542.722	30.21
543.175	29.61
543.629	30.21
544.082	45.41
544.536	34.91
544.989	36.51
545.442	40.31
545.895	38.51
546.349	33.71
546.802	35.81
547.255	43.81
547.708	37.01
548.161	43.61
548.614	43.01
549.067	53.11
549.52	40.11
549.973	38.21
550.426	35.51
550.879	31.31
551.332	39.31
551.785	34.41
552.238	34.41
552.691	44.21
553.144	37.01
553.596	37.31
554.049	37.91
554.502	50.11
554.955	55.11
555.407	47.31
555.86	42.41
556.313	41.81
556.765	39.61
557.218	45.01
557.67	46.21
558.123	44.01
558.576	41.51
559.028	46.71
559.48	48.01
559.933	46.01
560.385	37.11
560.838	29.61
561.29	30.31
561.742	34.01
562.195	31.21
562.647	29.11
563.099	42.01
563.551	38.31
564.004	43.71
564.456	36.41
564.908	38.01
565.36	32.41
565.812	33.61
566.264	29.81
566.716	33.31
567.168	31.31
567.62	35.91
568.072	25.81
568.524	24.31
568.976	27.11
569.428	26.31
569.88	28.81
570.332	24.71
570.784	26.01
571.235	30.91
571.687	30.01
572.139	26.51
572.59	28.51
573.042	29.31
573.494	26.91
573.945	29.61
574.397	27.51
574.849	25.51
575.3	29.81
575.752	25.31
576.203	24.31
576.655	34.01
577.106	20.11
577.557	23.61
578.009	31.51
578.46	23.71
578.912	25.11
579.363	30.01
579.814	26.51
580.265	20.21
580.717	23.51
581.168	24.61
581.619	30.61
582.07	27.51
582.521	24.91
582.972	20.81
583.423	28.11
583.875	24.51
584.326	24.41
584.777	21.01
585.227	28.81
585.678	25.01
586.129	28.81
586.58	37.41
587.031	30.71
587.482	32.61
587.933	37.31
588.384	29.01
588.834	26.91
589.285	30.01
589.736	35.01
590.186	32.11
590.637	31.51
591.088	29.71
591.538	28.21
591.989	36.01
592.439	38.51
592.89	25.71
593.34	26.11
593.791	27.71
594.241	30.01
594.692	29.71
595.142	28.61
595.593	25.91
596.043	29.91
596.493	22.71
596.943	30.61
597.394	28.51
597.844	19.21
598.294	23.21
598.744	31.01
599.195	37.51
599.645	39.91
600.095	34.81
600.545	49.71
600.995	49.11
601.445	61.21
601.895	66.51
602.345	75.81
602.795	60.51
603.245	46.91
603.695	44.51
604.145	34.71
604.594	30.41
605.044	28.41
605.494	28.01
605.944	20.01
606.393	26.01
606.843	28.91
607.293	27.71
607.743	30.81
608.192	26.21
608.642	30.11
609.091	29.41
609.541	32.21
609.99	35.81
610.44	30.01
610.889	24.21
611.339	16.31
611.788	14.11
612.238	29.21
612.687	39.31
613.136	30.31
613.586	28.11
614.035	23.71
614.484	25.71
614.933	22.11
615.383	29.11
615.832	34.61
616.281	29.21
616.73	29.41
617.179	27.61
617.628	29.41
618.077	24.71
618.526	25.01
618.975	26.31
619.424	27.81
619.873	21.01
620.322	24.61
620.771	18.31
621.22	21.21
621.669	23.41
622.118	16.81
622.567	19.41
623.015	17.21
623.464	18.71
623.913	15.01
624.361	13.91
624.81	10.91
625.259	18.11
625.707	24.81
626.156	21.41
626.604	26.11
627.053	19.11
627.501	17.11
627.95	17.31
628.398	15.41
628.847	12.61
629.295	14.21
629.744	21.31
630.192	21.41
630.64	14.31
631.089	11.01
631.537	16.71
631.985	14.81
632.433	15.81
632.881	13.11
633.33	19.41
633.778	14.11
634.226	12.91
634.674	17.81
635.122	15.11
635.57	21.91
636.018	20.11
636.466	27.71
636.914	16.01
637.362	25.11
637.81	26.41
638.258	24.01
638.705	15.91
639.153	22.31
639.601	16.01
640.049	16.11
640.497	23.51
640.944	36.91
641.392	11.41
641.84	12.71
642.287	14.11
642.735	10.71
643.182	18.61
643.63	15.21
644.078	9.21
644.525	14.41
644.973	11.61
645.42	11.61
645.867	17.91
646.315	20.91
646.762	12.91
647.21	13.71
647.657	10.41
648.104	23.51
648.551	9.01
648.999	10.61
649.446	12.31
649.893	13.21
650.34	13.91
650.787	14.01
651.234	20.81
651.682	12.91
652.129	14.11
652.576	11.51
653.023	22.11
653.47	27.71
653.917	21.11
654.363	20.11
654.81	17.11
655.257	15.51
655.704	18.41
656.151	11.51
656.598	17.51
657.044	13.71
657.491	16.21
657.938	12.81
658.385	13.71
658.831	22.01
659.278	25.01
659.724	12.21
660.171	13.31
660.618	12.91
661.064	16.21
661.511	8.01
661.957	14.31
662.404	12.41
662.85	22.21
663.296	11.81
663.743	12.11
664.189	16.71
664.635	18.01
665.082	12.21
665.528	16.01
665.974	12.61
666.42	12.61
666.867	16.01
667.313	3.31
667.759	13.21
668.205	10.91
668.651	15.41
669.097	14.41
669.543	1.81
669.989	9.61
670.435	4.01
670.881	14.01
671.327	14.91
671.773	13.01
672.219	19.51
672.665	21.61
673.11	12.11
673.556	27.41
674.002	39.11
674.448	23.41
674.893	20.61
675.339	13.71
675.785	13.21
676.23	13.51
676.676	5.31
677.122	12.61
677.567	7.21
678.013	19.41
678.458	10.61
678.904	6.71
679.349	-2.09
679.794	14.41
680.24	8.71
680.685	7.91
681.131	16.61
681.576	4.81
682.021	10.21
682.466	2.51
682.912	2.41
683.357	1.91
683.802	11.41
684.247	14.21
684.692	20.71
685.137	16.01
685.583	26.11
686.028	24.81
686.473	17.91
686.918	6.21
687.363	16.61
687.807	16.11
688.252	7.71
688.697	11.01
689.142	10.51
689.587	3.91
690.032	3.71
690.477	9.91
690.921	7.21
691.366	12.11
691.811	11.61
692.255	16.91
692.7	22.91
693.145	19.11
693.589	40.01
694.034	70.61
694.478	100.31
694.923	134.71
695.367	173.11
695.812	78.41
696.256	25.01
696.701	2.91
697.145	9.71
697.59	10.01
698.034	8.31
698.478	13.21
698.922	5.11
699.367	7.11
699.811	15.81
700.255	17.41
700.699	21.41
701.143	19.11
701.588	16.91
702.032	34.21
702.476	18.11
702.92	18.61
703.364	10.61
703.808	25.01
704.252	55.61
704.696	93.71
705.14	121.71
705.584	160.01
706.027	64.01
706.471	15.51
706.915	6.31
707.359	7.01
707.803	0.71
708.246	3.41
708.69	14.71
709.134	17.31
709.577	10.21
710.021	11.71
710.465	16.01
710.908	11.11
711.352	4.31
711.795	8.81
712.239	9.41
712.682	9.61
713.126	16.71
713.569	25.71
714.012	17.71
714.456	11.71
714.899	14.41
715.342	-3.09
715.786	-0.59
716.229	9.01
716.672	9.61
717.115	0.11
717.558	2.61
718.002	-0.69
718.445	4.61
718.888	16.31
719.331	6.81
719.774	10.11
720.217	8.91
720.66	3.81
721.103	10.51
721.546	5.71
721.989	9.11
722.432	-0.39
722.874	6.21
723.317	-1.09
723.76	0.91
724.203	14.61
724.645	17.41
725.088	19.11
725.531	23.21
725.974	30.81
726.416	23.11
726.859	10.71
727.301	5.61
727.744	10.51
728.187	5.01
728.629	10.81
729.071	5.01
729.514	9.21
729.956	10.11
730.399	11.51
730.841	11.51
731.283	8.71
731.726	5.41
732.168	5.41
732.61	3.71
733.053	14.51
733.495	9.71
733.937	8.31
734.379	16.91
734.821	9.61
735.263	21.51
735.705	41.81
736.148	97.91
736.59	172.41
737.032	214.71
737.474	176.91
737.916	37.71
738.357	18.31
738.799	12.91
739.241	5.81
739.683	4.01
740.125	8.21
740.567	2.71
741.008	9.81
741.45	14.21
741.892	14.61
742.334	21.61
742.775	10.01
743.217	10.21
743.658	5.01
744.1	6.81
744.542	-0.79
744.983	9.91
745.425	7.61
745.866	11.21
746.307	13.01
746.749	9.31
747.19	15.91
747.632	19.81
748.073	44.61
748.514	126.71
748.956	209.81
749.397	254.51
749.838	202.01
750.279	223.31
750.72	92.91
751.162	25.91
751.603	9.21
752.044	6.71
752.485	3.01
752.926	1.01
753.367	4.41
753.808	2.91
754.249	6.11
754.69	-0.69
755.131	4.71
755.572	4.61
756.013	3.81
756.453	4.41
756.894	4.01
757.335	-1.89
757.776	4.61
758.216	9.41
758.657	1.31
759.098	-1.49
759.538	1.11
759.979	-0.89
760.42	10.11
760.86	29.81
761.301	104.91
761.741	293.11
762.182	467.51
762.622	307.91
763.063	75.21
763.503	21.41
763.943	11.21
764.384	5.51
764.824	13.11
765.264	-4.59
765.705	3.21
766.145	-6.69
766.585	-1.99
767.025	-1.09
767.465	0.21
767.906	3.21
768.346	7.41
768.786	8.81
769.226	3.91
769.666	20.01
770.106	31.61
770.546	106.11
770.986	201.21
771.426	181.31
771.866	46.71
772.306	14.01
772.745	6.41
773.185	2.41
773.625	7.41
774.065	-2.89
774.505	4.71
774.944	1.41
775.384	7.71
775.824	18.41
776.263	10.91
776.703	1.91
777.142	1.71
777.582	1.81
778.021	1.11
778.461	0.11
778.9	1.81
779.34	-0.89
779.779	-3.29
780.219	-3.59
780.658	-6.09
781.097	-3.99
781.537	2.31
781.976	-1.79
782.415	-5.89
782.855	1.21
783.294	-2.09
783.733	-0.29
784.172	-1.69
784.611	-7.59
785.05	2.01
785.489	1.91
785.928	9.21
786.367	6.21
786.806	-8.39
787.245	-2.29
787.684	0.41
788.123	5.51
788.562	-1.99
789.001	-0.69
789.44	-0.19
789.879	0.51
790.317	-1.69
790.756	2.41
791.195	-3.19
791.634	0.91
792.072	9.31
792.511	15.81
792.95	61.61
793.388	152.21
793.827	136.61
794.265	33.41
794.704	6.11
795.142	8.31
795.581	7.81
796.019	2.11
796.458	4.81
