Data from 20171114-ORNL-Ar_H_NY_Subt18_08-03-55-511.txt Node
Date: Tue Nov 14 08:03:55 EST 2017
User: Ender
Spectrometer: HR+D1039
Trigger mode: 0
Integration Time (sec): 2.730000E-2
Scans to average: 10
Electric dark correction enabled: true
Nonlinearity correction enabled: false
Boxcar width: 0
XAxis mode: Wavelengths
Number of Pixels in Spectrum: 2048
>>>>>Begin Spectral Data<<<<<
187.836	-5.86
188.309	-5.86
188.782	-5.86
189.255	4.84
189.728	-2.16
190.201	4.94
190.674	3.74
191.147	2.54
191.619	-9.96
192.092	3.74
192.565	2.14
193.038	0.84
193.511	-0.06
193.984	1.04
194.456	-4.56
194.929	-0.66
195.402	-1.76
195.874	1.14
196.347	-5.26
196.82	-3.16
197.292	1.34
197.765	-1.86
198.237	-4.36
198.71	4.14
199.182	-3.96
199.655	1.54
200.127	2.64
200.6	-1.06
201.072	-2.86
201.544	-5.46
202.017	-9.16
202.489	2.54
202.961	-2.96
203.433	3.54
203.906	-3.96
204.378	-7.16
204.85	-7.86
205.322	-10.66
205.794	-4.16
206.266	-2.06
206.739	-9.26
207.211	7.34
207.683	-12.96
208.155	-6.46
208.627	-7.26
209.099	-2.96
209.57	-12.16
210.042	-15.36
210.514	-2.96
210.986	-3.06
211.458	-2.66
211.93	-3.56
212.402	0.04
212.873	-8.16
213.345	-9.36
213.817	-8.66
214.288	-3.16
214.76	-10.66
215.232	-7.06
215.703	-5.86
216.175	-4.96
216.646	-2.26
217.118	-7.86
217.589	-3.56
218.061	-6.96
218.532	-8.16
219.004	-4.76
219.475	-4.56
219.946	-1.26
220.418	-5.96
220.889	-1.16
221.36	-7.66
221.832	-6.76
222.303	-11.96
222.774	1.44
223.245	-5.26
223.717	-7.66
224.188	-5.36
224.659	-7.46
225.13	-7.26
225.601	0.44
226.072	-0.16
226.543	-3.16
227.014	-4.16
227.485	-1.86
227.956	-9.36
228.427	-0.36
228.898	1.94
229.369	6.04
229.839	-7.66
230.31	-8.46
230.781	-3.76
231.252	-3.86
231.722	-5.96
232.193	-0.86
232.664	-7.36
233.135	-1.16
233.605	3.34
234.076	-10.76
234.546	-0.46
235.017	-1.96
235.487	0.24
235.958	-2.16
236.428	-6.76
236.899	-3.26
237.369	-1.66
237.84	-4.86
238.31	-0.56
238.78	-5.06
239.251	-5.16
239.721	-3.66
240.191	-4.86
240.662	-3.06
241.132	-0.46
241.602	-1.06
242.072	2.24
242.542	7.44
243.013	-5.76
243.483	1.24
243.953	-2.36
244.423	-7.66
244.893	-2.06
245.363	-2.16
245.833	-1.56
246.303	-4.06
246.773	-1.76
247.243	-10.26
247.712	-2.26
248.182	4.94
248.652	4.64
249.122	-9.06
249.592	-0.36
250.061	4.24
250.531	5.94
251.001	-5.46
251.471	3.14
251.94	2.44
252.41	0.14
252.879	-6.26
253.349	9.54
253.818	5.34
254.288	0.84
254.757	-1.36
255.227	-5.86
255.696	-1.96
256.166	7.34
256.635	-1.26
257.105	-4.86
257.574	0.84
258.043	2.34
258.513	-1.76
258.982	-4.76
259.451	-8.86
259.92	1.34
260.389	4.84
260.859	6.14
261.328	-0.96
261.797	4.54
262.266	-7.56
262.735	1.54
263.204	0.34
263.673	-3.36
264.142	2.14
264.611	-4.26
265.08	-6.76
265.549	-5.16
266.018	5.54
266.487	-2.66
266.955	-3.06
267.424	-6.26
267.893	-0.16
268.362	-3.96
268.83	2.54
269.299	4.94
269.768	-2.76
270.236	-2.86
270.705	-0.26
271.174	-1.96
271.642	0.14
272.111	-5.76
272.579	-1.46
273.048	0.24
273.516	0.34
273.985	5.54
274.453	5.74
274.922	6.04
275.39	3.44
275.858	-1.26
276.327	4.74
276.795	3.44
277.263	2.44
277.731	8.14
278.2	3.44
278.668	3.64
279.136	0.94
279.604	-3.26
280.072	5.94
280.54	9.14
281.008	2.24
281.477	7.54
281.945	8.34
282.413	6.94
282.881	13.14
283.348	5.04
283.816	5.14
284.284	7.84
284.752	11.44
285.22	3.84
285.688	10.34
286.156	9.94
286.623	12.04
287.091	6.94
287.559	6.04
288.026	6.64
288.494	11.24
288.962	-1.36
289.429	-0.36
289.897	12.34
290.364	11.84
290.832	8.94
291.3	5.54
291.767	11.04
292.234	9.34
292.702	7.94
293.169	6.84
293.637	9.64
294.104	14.04
294.571	1.74
295.039	6.54
295.506	5.14
295.973	8.54
296.44	11.34
296.908	10.44
297.375	9.74
297.842	12.34
298.309	14.54
298.776	6.44
299.243	9.04
299.71	5.34
300.177	12.54
300.644	13.44
301.111	10.14
301.578	16.74
302.045	11.64
302.512	19.24
302.979	20.94
303.446	13.74
303.913	6.44
304.379	6.64
304.846	15.74
305.313	12.74
305.78	17.64
306.246	15.34
306.713	15.04
307.18	19.34
307.646	24.44
308.113	21.34
308.579	18.74
309.046	19.34
309.512	16.04
309.979	15.74
310.445	12.84
310.912	14.74
311.378	30.64
311.845	25.04
312.311	21.54
312.777	20.64
313.244	28.44
313.71	22.14
314.176	18.94
314.642	16.94
315.109	20.94
315.575	28.24
316.041	29.54
316.507	21.34
316.973	23.94
317.439	21.34
317.905	32.24
318.371	29.74
318.837	27.84
319.303	27.64
319.769	29.84
320.235	22.74
320.701	32.64
321.167	23.14
321.633	26.54
322.099	29.04
322.564	25.84
323.03	25.84
323.496	27.24
323.962	23.54
324.427	30.84
324.893	36.14
325.359	25.74
325.824	33.84
326.29	28.74
326.755	32.24
327.221	33.14
327.686	28.24
328.152	37.24
328.617	33.64
329.083	38.94
329.548	42.04
330.014	32.64
330.479	29.94
330.944	36.04
331.41	30.94
331.875	36.34
332.34	33.84
332.805	39.14
333.271	39.54
333.736	34.54
334.201	36.04
334.666	39.24
335.131	42.74
335.596	36.84
336.061	37.44
336.526	35.84
336.991	38.84
337.456	38.34
337.921	40.24
338.386	37.24
338.851	35.04
339.316	40.14
339.781	42.54
340.246	38.24
340.711	33.64
341.175	38.54
341.64	36.14
342.105	45.34
342.569	41.84
343.034	45.74
343.499	46.54
343.963	46.14
344.428	49.64
344.893	47.24
345.357	50.14
345.822	54.94
346.286	56.64
346.751	56.84
347.215	55.44
347.679	56.44
348.144	76.54
348.608	63.44
349.073	56.64
349.537	67.14
350.001	68.24
350.465	81.14
350.93	70.24
351.394	67.54
351.858	56.34
352.322	73.24
352.786	67.34
353.25	81.74
353.715	90.24
354.179	79.14
354.643	90.34
355.107	97.14
355.571	82.34
356.035	78.94
356.498	90.04
356.962	85.34
357.426	96.54
357.89	96.14
358.354	77.34
358.818	74.54
359.281	69.04
359.745	66.64
360.209	67.04
360.673	66.94
361.136	69.34
361.6	79.64
362.064	71.84
362.527	79.54
362.991	77.14
363.454	72.84
363.918	76.14
364.381	72.34
364.845	74.24
365.308	73.64
365.772	73.84
366.235	78.74
366.698	71.14
367.162	79.94
367.625	73.24
368.088	75.74
368.552	80.24
369.015	81.44
369.478	86.84
369.941	89.54
370.404	83.14
370.867	89.44
371.331	94.64
371.794	98.74
372.257	90.04
372.72	91.24
373.183	95.84
373.646	82.34
374.109	88.84
374.572	91.64
375.035	93.24
375.497	91.34
375.96	96.54
376.423	100.84
376.886	104.94
377.349	105.94
377.811	93.24
378.274	93.14
378.737	99.14
379.199	99.64
379.662	96.64
380.125	98.54
380.587	96.54
381.05	94.54
381.512	103.94
381.975	111.64
382.437	107.54
382.9	110.64
383.362	116.14
383.825	116.54
384.287	113.64
384.75	109.54
385.212	111.74
385.674	120.44
386.136	120.74
386.599	110.84
387.061	117.14
387.523	122.14
387.985	118.94
388.447	121.54
388.91	120.94
389.372	122.84
389.834	117.64
390.296	121.94
390.758	123.44
391.22	123.44
391.682	134.14
392.144	139.34
392.606	135.94
393.068	129.44
393.529	140.24
393.991	134.34
394.453	124.54
394.915	129.14
395.377	122.74
395.838	123.34
396.3	130.54
396.762	131.94
397.224	134.34
397.685	127.84
398.147	124.24
398.608	123.44
399.07	115.14
399.531	127.84
399.993	136.94
400.454	145.74
400.916	139.34
401.377	140.04
401.839	145.34
402.3	147.44
402.762	155.74
403.223	166.84
403.684	162.94
404.145	153.54
404.607	142.24
405.068	152.24
405.529	158.44
405.99	173.64
406.451	166.34
406.913	165.84
407.374	162.34
407.835	155.54
408.296	166.84
408.757	166.64
409.218	169.84
409.679	171.64
410.14	173.44
410.601	165.14
411.062	178.24
411.522	176.54
411.983	172.54
412.444	172.94
412.905	174.44
413.366	182.24
413.826	197.24
414.287	217.74
414.748	265.94
415.208	245.74
415.669	214.34
416.13	209.64
416.59	206.64
417.051	213.14
417.511	222.14
417.972	231.64
418.432	243.34
418.893	295.94
419.353	264.84
419.814	200.94
420.274	181.84
420.734	180.04
421.195	191.54
421.655	185.44
422.115	191.34
422.576	191.84
423.036	205.04
423.496	205.84
423.956	210.94
424.416	222.44
424.876	261.74
425.336	252.34
425.797	259.64
426.257	247.94
426.717	237.74
427.177	223.64
427.637	215.24
428.097	226.74
428.556	240.74
429.016	258.94
429.476	244.64
429.936	255.44
430.396	261.44
430.856	261.54
431.315	289.24
431.775	317.64
432.235	350.94
432.694	328.04
433.154	338.94
433.614	349.64
434.073	311.14
434.533	263.24
434.993	249.44
435.452	256.84
435.912	268.04
436.371	258.64
436.83	256.34
437.29	247.74
437.749	230.24
438.209	232.54
438.668	246.44
439.127	260.44
439.587	240.64
440.046	227.44
440.505	240.94
440.964	250.24
441.424	279.44
441.883	275.84
442.342	250.94
442.801	216.54
443.26	212.44
443.719	215.84
444.178	220.94
444.637	207.24
445.096	218.54
445.555	219.34
446.014	216.94
446.473	224.74
446.932	227.34
447.391	220.64
447.849	231.84
448.308	219.14
448.767	212.84
449.226	230.14
449.685	233.44
450.143	247.34
450.602	239.44
451.061	222.04
451.519	223.44
451.978	221.34
452.436	229.24
452.895	230.84
453.353	233.34
453.812	225.34
454.27	234.14
454.729	227.14
455.187	224.54
455.646	235.34
456.104	236.84
456.562	253.04
457.021	258.94
457.479	248.04
457.937	255.64
458.395	251.84
458.854	245.94
459.312	244.04
459.77	253.94
460.228	239.94
460.686	241.44
461.144	249.94
461.602	237.44
462.06	241.44
462.518	248.54
462.976	249.44
463.434	245.14
463.892	253.74
464.35	258.74
464.808	268.74
465.266	255.54
465.724	269.74
466.181	265.64
466.639	261.34
467.097	277.24
467.555	290.14
468.012	292.44
468.47	293.94
468.928	313.84
469.385	318.24
469.843	330.84
470.3	323.34
470.758	337.94
471.215	349.24
471.673	374.04
472.13	377.84
472.588	385.64
473.045	356.74
473.503	354.74
473.96	369.64
474.417	385.14
474.875	408.14
475.332	422.34
475.789	428.44
476.246	432.84
476.704	458.54
477.161	469.24
477.618	482.34
478.075	517.74
478.532	558.64
478.989	608.74
479.446	693.04
479.903	685.64
480.36	725.84
480.817	758.24
481.274	836.44
481.731	929.04
482.188	999.64
482.645	1102.64
483.102	1196.64
483.558	1299.64
484.015	1334.54
484.472	1332.24
484.929	1290.14
485.385	1250.94
485.842	1218.24
486.299	1173.34
486.755	1114.24
487.212	962.04
487.668	839.04
488.125	786.84
488.582	727.74
489.038	692.34
489.494	653.74
489.951	639.44
490.407	616.94
490.864	600.54
491.32	584.64
491.776	581.54
492.233	596.84
492.689	572.64
493.145	564.14
493.602	554.14
494.058	564.44
494.514	562.84
494.97	575.14
495.426	587.14
495.882	563.44
496.338	561.84
496.794	562.54
497.251	555.04
497.707	569.34
498.163	572.54
498.618	576.14
499.074	577.44
499.53	601.24
499.986	604.34
500.442	586.34
500.898	569.14
501.354	553.34
501.809	571.04
502.265	568.54
502.721	575.44
503.177	579.44
503.632	575.74
504.088	585.84
504.543	602.64
504.999	611.84
505.455	597.34
505.91	587.44
506.366	592.04
506.821	575.54
507.277	577.44
507.732	578.94
508.187	570.64
508.643	590.54
509.098	588.64
509.553	608.84
510.009	601.24
510.464	608.74
510.919	633.04
511.375	636.14
511.83	633.54
512.285	650.84
512.74	673.74
513.195	691.04
513.65	689.74
514.105	693.04
514.56	690.74
515.015	706.64
515.47	724.94
515.925	703.74
516.38	707.54
516.835	715.04
517.29	702.74
517.745	702.84
518.2	692.24
518.655	677.84
519.109	674.74
519.564	676.04
520.019	660.14
520.474	652.94
520.928	653.64
521.383	640.24
521.838	639.24
522.292	643.04
522.747	639.24
523.201	634.64
523.656	633.64
524.11	618.14
524.565	622.34
525.019	618.34
525.474	619.04
525.928	625.94
526.382	621.34
526.837	627.24
527.291	633.74
527.745	622.64
528.2	612.04
528.654	614.24
529.108	612.84
529.562	608.34
530.016	607.74
530.47	612.74
530.925	608.84
531.379	607.24
531.833	613.94
532.287	616.94
532.741	616.14
533.195	618.64
533.649	618.64
534.103	620.24
534.556	619.24
535.01	604.64
535.464	615.14
535.918	617.94
536.372	626.54
536.826	627.84
537.279	601.74
537.733	618.24
538.187	618.44
538.64	618.04
539.094	623.74
539.548	629.44
540.001	627.44
540.455	627.64
540.908	644.04
541.362	636.74
541.815	648.24
542.269	645.74
542.722	658.04
543.175	664.64
543.629	670.34
544.082	681.24
544.536	684.44
544.989	683.54
545.442	676.34
545.895	684.24
546.349	687.64
546.802	687.94
547.255	695.14
547.708	696.24
548.161	700.54
548.614	714.34
549.067	710.34
549.52	702.44
549.973	689.24
550.426	689.64
550.879	682.84
551.332	685.84
551.785	689.64
552.238	686.74
552.691	695.54
553.144	711.34
553.596	722.14
554.049	723.84
554.502	762.44
554.955	768.44
555.407	761.34
555.86	757.54
556.313	753.54
556.765	742.14
557.218	745.04
557.67	744.44
558.123	733.74
558.576	725.64
559.028	731.64
559.48	740.74
559.933	736.44
560.385	708.34
560.838	682.14
561.29	659.44
561.742	662.44
562.195	645.44
562.647	648.24
563.099	654.14
563.551	653.74
564.004	657.04
564.456	648.24
564.908	641.84
565.36	614.44
565.812	597.94
566.264	598.34
566.716	593.94
567.168	575.54
567.62	584.24
568.072	578.44
568.524	577.14
568.976	566.44
569.428	553.24
569.88	558.74
570.332	567.34
570.784	569.64
571.235	557.44
571.687	565.44
572.139	576.04
572.59	588.14
573.042	582.64
573.494	579.44
573.945	570.64
574.397	559.94
574.849	557.84
575.3	563.64
575.752	555.94
576.203	553.64
576.655	564.14
577.106	546.24
577.557	545.64
578.009	535.74
578.46	538.24
578.912	543.04
579.363	541.14
579.814	541.94
580.265	528.84
580.717	537.24
581.168	539.14
581.619	549.04
582.07	552.44
582.521	533.44
582.972	538.24
583.423	541.14
583.875	542.94
584.326	546.34
584.777	552.14
585.227	575.64
585.678	578.24
586.129	588.54
586.58	611.64
587.031	635.94
587.482	648.04
587.933	669.54
588.384	654.34
588.834	631.14
589.285	615.84
589.736	618.24
590.186	601.04
590.637	610.94
591.088	598.24
591.538	597.64
591.989	580.44
592.439	577.64
592.89	574.14
593.34	559.44
593.791	551.44
594.241	541.14
594.692	552.54
595.142	538.74
595.593	536.84
596.043	550.14
596.493	556.74
596.943	552.24
597.394	562.54
597.844	552.14
598.294	570.34
598.744	589.14
599.195	616.34
599.645	637.74
600.095	664.34
600.545	716.94
600.995	738.24
601.445	785.94
601.895	842.04
602.345	890.44
602.795	860.44
603.245	833.14
603.695	792.64
604.145	740.64
604.594	707.24
605.044	676.24
605.494	621.94
605.944	577.24
606.393	571.44
606.843	558.64
607.293	561.14
607.743	556.04
608.192	569.24
608.642	587.14
609.091	579.14
609.541	585.24
609.99	583.14
610.44	577.34
610.889	543.54
611.339	536.84
611.788	521.94
612.238	526.84
612.687	531.74
613.136	524.84
613.586	539.94
614.035	534.34
614.484	540.94
614.933	532.74
615.383	535.94
615.832	539.94
616.281	524.04
616.73	505.94
617.179	494.94
617.628	485.34
618.077	477.34
618.526	473.44
618.975	468.34
619.424	475.04
619.873	469.84
620.322	470.64
620.771	463.94
621.22	457.64
621.669	443.84
622.118	442.44
622.567	436.14
623.015	425.64
623.464	424.44
623.913	424.44
624.361	420.74
624.81	418.54
625.259	417.74
625.707	424.24
626.156	419.84
626.604	431.24
627.053	418.64
627.501	429.54
627.95	424.24
628.398	444.54
628.847	427.84
629.295	423.24
629.744	429.84
630.192	425.34
630.64	416.44
631.089	409.54
631.537	402.44
631.985	394.24
632.433	387.24
632.881	385.94
633.33	393.64
633.778	386.04
634.226	389.84
634.674	401.74
635.122	398.94
635.57	407.94
636.018	416.74
636.466	412.64
636.914	412.34
637.362	425.24
637.81	429.14
638.258	433.74
638.705	427.44
639.153	453.14
639.601	455.74
640.049	466.24
640.497	499.44
640.944	520.54
641.392	469.14
641.84	455.54
642.287	424.34
642.735	411.34
643.182	415.64
643.63	418.24
644.078	406.64
644.525	416.54
644.973	423.64
645.42	428.64
645.867	442.34
646.315	458.54
646.762	472.74
647.21	490.44
647.657	504.74
648.104	536.14
648.551	542.34
648.999	573.84
649.446	631.74
649.893	691.74
650.34	782.74
650.787	919.44
651.234	1112.04
651.682	1448.84
652.129	1927.74
652.576	2727.44
653.023	3991.74
653.47	5540.54
653.917	6989.64
654.363	8185.84
654.81	9277.34
655.257	8805.04
655.704	5808.84
656.151	3440.14
656.598	2267.04
657.044	1629.34
657.491	1260.84
657.938	1008.54
658.385	851.64
658.831	742.94
659.278	658.54
659.724	589.64
660.171	547.54
660.618	504.54
661.064	474.94
661.511	456.24
661.957	449.94
662.404	433.14
662.85	445.84
663.296	429.34
663.743	402.74
664.189	392.14
664.635	384.54
665.082	377.44
665.528	372.54
665.974	369.04
666.42	363.84
666.867	362.44
667.313	346.64
667.759	336.84
668.205	322.44
668.651	327.94
669.097	322.14
669.543	317.44
669.989	319.34
670.435	322.84
670.881	327.24
671.327	328.44
671.773	344.04
672.219	348.44
672.665	393.54
673.11	415.54
673.556	461.24
674.002	494.14
674.448	481.94
674.893	403.04
675.339	346.64
675.785	317.54
676.23	296.64
676.676	275.44
677.122	273.84
677.567	264.94
678.013	270.24
678.458	260.74
678.904	255.84
679.349	244.34
679.794	257.54
680.24	261.14
680.685	245.24
681.131	249.24
681.576	249.84
682.021	255.24
682.466	248.04
682.912	250.94
683.357	242.84
683.802	275.74
684.247	288.24
684.692	316.04
685.137	350.54
685.583	390.14
686.028	402.64
686.473	375.64
686.918	322.94
687.363	301.24
687.807	288.24
688.252	260.44
688.697	251.94
689.142	245.64
689.587	240.14
690.032	229.54
690.477	244.44
690.921	249.54
691.366	272.14
691.811	283.74
692.255	312.44
692.7	334.24
693.145	352.74
693.589	486.94
694.034	786.54
694.478	1090.04
694.923	1278.74
695.367	1725.64
695.812	892.04
696.256	374.14
696.701	272.04
697.145	243.74
697.59	235.24
698.034	226.74
698.478	233.14
698.922	236.84
699.367	236.24
699.811	241.34
700.255	251.64
700.699	270.04
701.143	299.64
701.588	331.94
702.032	375.24
702.476	371.04
702.92	349.34
703.364	351.04
703.808	440.74
704.252	724.84
704.696	1034.54
705.14	1231.94
705.584	1614.64
706.027	795.34
706.471	388.24
706.915	285.44
707.359	249.64
707.803	223.54
708.246	217.64
708.69	226.84
709.134	225.64
709.577	222.34
710.021	226.84
710.465	216.94
710.908	208.04
711.352	205.94
711.795	214.34
712.239	244.54
712.682	259.54
713.126	294.74
713.569	326.24
714.012	254.94
714.456	217.04
714.899	201.34
715.342	190.84
715.786	188.54
716.229	187.54
716.672	189.84
717.115	175.24
717.558	174.54
718.002	178.34
718.445	190.94
718.888	202.44
719.331	205.04
719.774	217.24
720.217	212.74
720.66	204.94
721.103	188.44
721.546	179.74
721.989	175.94
722.432	158.94
722.874	165.34
723.317	158.74
723.76	160.84
724.203	181.54
724.645	222.64
725.088	299.54
725.531	399.94
725.974	470.04
726.416	405.84
726.859	218.84
727.301	175.04
727.744	168.84
728.187	163.24
728.629	164.64
729.071	171.14
729.514	179.74
729.956	191.24
730.399	201.84
730.841	206.04
731.283	188.64
731.726	188.94
732.168	183.94
732.61	191.94
733.053	199.44
733.495	220.64
733.937	248.54
734.379	286.64
734.821	302.34
735.263	379.84
735.705	579.84
736.148	1085.54
736.59	1847.84
737.032	2323.94
737.474	1906.94
737.916	599.64
738.357	314.94
738.799	232.84
739.241	213.14
739.683	199.14
740.125	206.74
740.567	216.04
741.008	232.64
741.45	228.24
741.892	225.94
742.334	249.14
742.775	267.24
743.217	255.44
743.658	196.44
744.1	179.84
744.542	186.54
744.983	229.14
745.425	258.24
745.866	261.24
746.307	205.24
746.749	202.84
747.19	225.54
747.632	314.44
748.073	587.14
748.514	1293.24
748.956	2075.74
749.397	2615.14
749.838	2183.04
750.279	2254.24
750.72	1141.04
751.162	405.64
751.603	234.04
752.044	177.04
752.485	150.14
752.926	151.24
753.367	145.24
753.808	138.74
754.249	128.24
754.69	129.74
755.131	128.54
755.572	122.74
756.013	126.84
756.453	131.74
756.894	131.04
757.335	130.74
757.776	133.94
758.216	130.34
758.657	144.64
759.098	139.64
759.538	155.44
759.979	185.94
760.42	253.84
760.86	479.34
761.301	1247.64
761.741	3199.74
762.182	5017.24
762.622	3572.14
763.063	1007.74
763.503	397.14
763.943	233.34
