Data from 20171114-ORNL-Ar_H_NY_Subt18_08-04-14-073.txt Node
Date: Tue Nov 14 08:04:14 EST 2017
User: Ender
Spectrometer: HR+D1039
Trigger mode: 0
Integration Time (sec): 2.730000E-2
Scans to average: 10
Electric dark correction enabled: true
Nonlinearity correction enabled: false
Boxcar width: 0
XAxis mode: Wavelengths
Number of Pixels in Spectrum: 2048
>>>>>Begin Spectral Data<<<<<
187.836	-4.46
188.309	-4.46
188.782	-4.46
189.255	-0.36
189.728	-1.46
190.201	3.64
190.674	-4.76
191.147	7.64
191.619	-9.06
192.092	3.54
192.565	3.94
193.038	-1.66
193.511	5.14
193.984	-2.76
194.456	-2.16
194.929	2.84
195.402	-2.76
195.874	2.64
196.347	-4.76
196.82	-8.96
197.292	10.84
197.765	2.14
198.237	-6.76
198.71	2.84
199.182	1.24
199.655	2.44
200.127	3.14
200.6	-2.86
201.072	-6.16
201.544	-4.76
202.017	-3.26
202.489	6.04
202.961	-4.36
203.433	-3.56
203.906	-8.16
204.378	-6.36
204.85	-6.16
205.322	-9.06
205.794	1.84
206.266	-5.86
206.739	-7.66
207.211	-0.46
207.683	-6.76
208.155	-2.96
208.627	-5.86
209.099	-4.66
209.57	-9.66
210.042	-4.36
210.514	-1.76
210.986	-1.06
211.458	-6.36
211.93	-2.16
212.402	2.54
212.873	-11.06
213.345	-7.76
213.817	-12.66
214.288	-6.16
214.76	-11.76
215.232	0.74
215.703	-1.76
216.175	1.44
216.646	-6.76
217.118	-2.86
217.589	-4.06
218.061	-1.06
218.532	-1.46
219.004	-5.26
219.475	-5.46
219.946	-0.56
220.418	-7.96
220.889	3.34
221.36	-4.26
221.832	-5.66
222.303	-3.56
222.774	0.34
223.245	-12.56
223.717	-1.16
224.188	-1.76
224.659	-4.56
225.13	-3.16
225.601	-3.36
226.072	3.54
226.543	-2.76
227.014	1.64
227.485	-2.36
227.956	-1.36
228.427	-4.06
228.898	-1.06
229.369	6.04
229.839	-3.96
230.31	-2.76
230.781	-2.36
231.252	-1.26
231.722	-2.16
232.193	-2.46
232.664	2.74
233.135	-0.96
233.605	-2.56
234.076	-5.96
234.546	3.44
235.017	8.14
235.487	4.94
235.958	0.84
236.428	-0.36
236.899	2.84
237.369	4.24
237.84	-1.16
238.31	5.34
238.78	-3.16
239.251	1.34
239.721	4.04
240.191	1.04
240.662	-0.16
241.132	-3.06
241.602	-0.36
242.072	0.34
242.542	10.34
243.013	-0.36
243.483	6.84
243.953	1.84
244.423	-4.06
244.893	-2.46
245.363	2.24
245.833	7.54
246.303	-4.56
246.773	11.14
247.243	1.04
247.712	3.54
248.182	6.44
248.652	9.44
249.122	-1.96
249.592	10.54
250.061	21.54
250.531	33.94
251.001	16.54
251.471	22.14
251.94	18.34
252.41	8.84
252.879	-0.96
253.349	12.34
253.818	6.14
254.288	3.34
254.757	6.74
255.227	3.94
255.696	1.84
256.166	12.14
256.635	9.14
257.105	9.04
257.574	7.64
258.043	6.54
258.513	14.34
258.982	15.74
259.451	11.54
259.92	16.34
260.389	14.94
260.859	15.84
261.328	10.64
261.797	17.04
262.266	6.84
262.735	14.74
263.204	2.54
263.673	5.44
264.142	7.74
264.611	-1.36
265.08	4.24
265.549	4.94
266.018	5.14
266.487	-1.46
266.955	-2.96
267.424	1.44
267.893	4.74
268.362	1.54
268.83	10.04
269.299	12.44
269.768	5.64
270.236	10.14
270.705	-0.46
271.174	9.44
271.642	6.34
272.111	10.64
272.579	23.74
273.048	19.54
273.516	23.24
273.985	25.44
274.453	19.04
274.922	15.24
275.39	9.64
275.858	1.14
276.327	12.84
276.795	17.34
277.263	6.84
277.731	30.64
278.2	37.94
278.668	47.14
279.136	40.24
279.604	15.44
280.072	14.54
280.54	12.84
281.008	10.44
281.477	13.44
281.945	14.74
282.413	10.14
282.881	15.24
283.348	8.74
283.816	10.74
284.284	13.14
284.752	25.04
285.22	10.54
285.688	16.74
286.156	21.14
286.623	40.14
287.091	40.74
287.559	21.74
288.026	17.84
288.494	16.44
288.962	4.54
289.429	9.44
289.897	11.34
290.364	11.84
290.832	19.84
291.3	14.24
291.767	13.14
292.234	19.24
292.702	10.14
293.169	14.14
293.637	14.84
294.104	15.44
294.571	6.34
295.039	10.04
295.506	14.24
295.973	19.54
296.44	16.94
296.908	16.84
297.375	21.34
297.842	18.14
298.309	10.94
298.776	11.34
299.243	17.44
299.71	10.64
300.177	20.64
300.644	22.44
301.111	20.44
301.578	19.84
302.045	15.14
302.512	23.14
302.979	20.44
303.446	18.64
303.913	17.04
304.379	18.14
304.846	19.34
305.313	18.94
305.78	20.64
306.246	26.84
306.713	23.84
307.18	23.34
307.646	27.34
308.113	25.54
308.579	22.14
309.046	23.24
309.512	27.74
309.979	17.54
310.445	22.24
310.912	23.14
311.378	31.64
311.845	26.54
312.311	25.54
312.777	26.84
313.244	28.94
313.71	38.34
314.176	26.34
314.642	29.24
315.109	19.84
315.575	32.24
316.041	38.84
316.507	28.54
316.973	35.04
317.439	34.54
317.905	32.84
318.371	32.54
318.837	24.24
319.303	27.94
319.769	31.74
320.235	32.34
320.701	31.84
321.167	33.74
321.633	28.74
322.099	32.84
322.564	40.64
323.03	35.04
323.496	31.04
323.962	39.14
324.427	35.74
324.893	36.84
325.359	29.54
325.824	33.64
326.29	29.24
326.755	33.54
327.221	35.84
327.686	37.74
328.152	43.64
328.617	39.84
329.083	42.74
329.548	45.24
330.014	38.84
330.479	32.64
330.944	36.84
331.41	44.54
331.875	42.94
332.34	37.64
332.805	40.54
333.271	40.14
333.736	42.34
334.201	41.04
334.666	46.04
335.131	46.04
335.596	46.14
336.061	44.34
336.526	40.94
336.991	46.04
337.456	53.24
337.921	45.04
338.386	36.94
338.851	33.24
339.316	37.54
339.781	37.54
340.246	52.74
340.711	43.74
341.175	47.04
341.64	44.14
342.105	50.04
342.569	45.74
343.034	43.24
343.499	51.94
343.963	44.44
344.428	55.64
344.893	51.54
345.357	56.24
345.822	53.14
346.286	60.74
346.751	64.34
347.215	62.64
347.679	67.14
348.144	81.14
348.608	74.64
349.073	56.34
349.537	69.64
350.001	71.54
350.465	80.04
350.93	71.54
351.394	71.14
351.858	61.74
352.322	74.94
352.786	76.94
353.25	90.34
353.715	96.14
354.179	81.44
354.643	101.44
355.107	108.04
355.571	90.24
356.035	89.54
356.498	103.84
356.962	100.04
357.426	111.64
357.89	91.24
358.354	74.94
358.818	74.64
359.281	67.04
359.745	71.34
360.209	63.54
360.673	64.64
361.136	67.24
361.6	78.14
362.064	78.04
362.527	69.84
362.991	78.54
363.454	68.04
363.918	75.34
364.381	72.84
364.845	74.54
365.308	78.34
365.772	72.14
366.235	73.14
366.698	76.44
367.162	73.04
367.625	75.44
368.088	80.44
368.552	76.64
369.015	79.24
369.478	82.14
369.941	92.84
370.404	86.14
370.867	92.94
371.331	88.34
371.794	97.64
372.257	99.24
372.72	100.44
373.183	96.54
373.646	91.14
374.109	98.54
374.572	97.64
375.035	96.64
375.497	96.34
375.96	94.24
376.423	93.84
376.886	98.34
377.349	101.64
377.811	89.54
378.274	102.94
378.737	93.04
379.199	105.84
379.662	95.54
380.125	103.54
380.587	104.04
381.05	110.64
381.512	115.64
381.975	120.44
382.437	114.74
382.9	109.04
383.362	116.94
383.825	121.84
384.287	123.84
384.75	123.04
385.212	123.14
385.674	125.94
386.136	118.94
386.599	109.94
387.061	115.94
387.523	118.54
387.985	120.34
388.447	125.64
388.91	124.24
389.372	139.34
389.834	137.04
390.296	126.84
390.758	132.64
391.22	148.44
391.682	171.14
392.144	251.24
392.606	196.54
393.068	150.04
393.529	144.84
393.991	134.54
394.453	132.54
394.915	135.44
395.377	167.64
395.838	191.54
396.3	137.94
396.762	123.84
397.224	121.44
397.685	117.94
398.147	117.34
398.608	118.74
399.07	116.04
399.531	120.14
399.993	126.34
400.454	143.54
400.916	139.44
401.377	125.24
401.839	135.24
402.3	133.44
402.762	145.84
403.223	162.14
403.684	154.14
404.145	140.24
404.607	143.84
405.068	145.14
405.529	158.74
405.99	166.14
406.451	157.74
406.913	151.64
407.374	150.04
407.835	143.24
408.296	149.34
408.757	160.14
409.218	166.14
409.679	159.24
410.14	157.94
410.601	157.54
411.062	165.34
411.522	172.64
411.983	171.24
412.444	158.14
412.905	157.84
413.366	167.44
413.826	171.64
414.287	197.34
414.748	235.04
415.208	225.54
415.669	196.34
416.13	181.84
416.59	187.54
417.051	193.04
417.511	203.94
417.972	216.14
418.432	223.44
418.893	264.94
419.353	225.24
419.814	181.84
420.274	169.74
420.734	161.54
421.195	173.04
421.655	178.44
422.115	168.04
422.576	167.04
423.036	183.24
423.496	187.64
423.956	194.14
424.416	202.24
424.876	235.44
425.336	239.24
425.797	231.84
426.257	224.04
426.717	209.24
427.177	208.74
427.637	200.64
428.097	212.94
428.556	225.44
429.016	240.74
429.476	239.34
429.936	246.04
430.396	242.54
430.856	258.84
431.315	275.94
431.775	306.64
432.235	340.54
432.694	316.74
433.154	320.64
433.614	342.64
434.073	289.64
434.533	250.14
434.993	239.34
435.452	249.94
435.912	264.54
436.371	257.24
436.83	248.74
437.29	229.94
437.749	217.24
438.209	220.74
438.668	238.04
439.127	247.54
439.587	235.94
440.046	220.04
440.505	225.44
440.964	240.34
441.424	277.74
441.883	260.54
442.342	229.14
442.801	200.94
443.26	201.94
443.719	196.44
444.178	199.64
444.637	192.84
445.096	200.24
445.555	200.34
446.014	200.84
446.473	197.84
446.932	209.34
447.391	205.34
447.849	205.74
448.308	201.04
448.767	206.84
449.226	216.14
449.685	214.54
450.143	219.44
450.602	214.24
451.061	205.94
451.519	207.64
451.978	207.14
452.436	209.94
452.895	218.44
453.353	224.84
453.812	213.04
454.27	214.14
454.729	213.44
455.187	208.74
455.646	214.14
456.104	220.44
456.562	232.04
457.021	237.04
457.479	231.54
457.937	240.14
458.395	231.94
458.854	214.74
459.312	213.34
459.77	232.34
460.228	225.84
460.686	217.34
461.144	218.84
461.602	215.14
462.06	208.54
462.518	223.14
462.976	226.44
463.434	230.54
463.892	234.64
464.35	246.24
464.808	251.44
465.266	244.44
465.724	243.84
466.181	242.24
466.639	249.54
467.097	255.64
467.555	272.84
468.012	271.54
468.47	269.54
468.928	290.44
469.385	293.94
469.843	311.24
470.3	311.54
470.758	312.54
471.215	331.34
471.673	364.54
472.13	359.64
472.588	361.34
473.045	316.34
473.503	340.34
473.96	349.84
474.417	362.94
474.875	389.54
475.332	420.74
475.789	410.04
476.246	419.74
476.704	436.64
477.161	447.74
477.618	457.64
478.075	488.24
478.532	539.64
478.989	599.74
479.446	703.74
479.903	685.14
480.36	713.24
480.817	763.74
481.274	858.94
481.731	952.84
482.188	1027.54
482.645	1161.14
483.102	1237.14
483.558	1365.34
484.015	1432.14
484.472	1408.84
484.929	1357.74
485.385	1318.04
485.842	1274.54
486.299	1220.24
486.755	1142.84
487.212	974.34
487.668	830.54
488.125	769.04
488.582	696.94
489.038	677.84
489.494	645.64
489.951	617.74
490.407	600.64
490.864	576.74
491.32	577.74
491.776	578.44
492.233	570.04
492.689	550.04
493.145	537.64
493.602	539.04
494.058	542.54
494.514	544.44
494.97	561.94
495.426	574.34
495.882	553.14
496.338	545.54
496.794	556.44
497.251	547.64
497.707	565.74
498.163	564.84
498.618	574.64
499.074	569.24
499.53	589.74
499.986	599.24
500.442	576.64
500.898	560.84
501.354	555.74
501.809	564.64
502.265	570.24
502.721	589.24
503.177	593.64
503.632	586.44
504.088	601.44
504.543	633.44
504.999	625.64
505.455	588.24
505.91	569.54
506.366	559.64
506.821	553.54
507.277	556.24
507.732	554.94
508.187	550.54
508.643	564.94
509.098	563.84
509.553	585.34
510.009	594.44
510.464	591.04
510.919	615.64
511.375	612.54
511.83	625.04
512.285	644.14
512.74	674.44
513.195	683.74
513.65	685.94
514.105	679.34
514.56	685.74
515.015	708.94
515.47	712.44
515.925	699.84
516.38	697.14
516.835	718.64
517.29	700.04
517.745	701.54
518.2	685.64
518.655	656.34
519.109	666.94
519.564	666.14
520.019	639.74
520.474	635.84
520.928	650.74
521.383	641.24
521.838	630.94
522.292	631.94
522.747	626.44
523.201	626.74
523.656	608.74
524.11	611.54
524.565	624.74
525.019	606.94
525.474	606.74
525.928	614.54
526.382	609.74
526.837	617.54
527.291	617.74
527.745	616.34
528.2	611.74
528.654	611.64
529.108	606.44
529.562	608.04
530.016	609.24
530.47	613.44
530.925	608.04
531.379	609.24
531.833	614.04
532.287	621.84
532.741	618.34
533.195	627.64
533.649	622.74
534.103	628.54
534.556	624.54
535.01	616.74
535.464	622.34
535.918	628.64
536.372	628.04
536.826	627.84
537.279	608.14
537.733	623.34
538.187	629.34
538.64	626.04
539.094	641.64
539.548	641.64
540.001	631.34
540.455	636.84
540.908	641.04
541.362	645.14
541.815	656.54
542.269	677.14
542.722	655.34
543.175	668.94
543.629	668.34
544.082	681.94
544.536	685.34
544.989	681.84
545.442	696.84
545.895	691.44
546.349	688.94
546.802	702.64
547.255	698.64
547.708	700.04
548.161	710.64
548.614	712.54
549.067	718.24
549.52	715.84
549.973	700.44
550.426	698.14
550.879	691.44
551.332	683.14
551.785	688.74
552.238	690.14
552.691	708.84
553.144	721.44
553.596	737.34
554.049	744.14
554.502	776.84
554.955	782.14
555.407	779.44
555.86	775.54
556.313	765.94
556.765	753.14
557.218	758.64
557.67	756.04
558.123	758.14
558.576	747.64
559.028	760.24
559.48	754.34
559.933	745.34
560.385	728.04
560.838	702.44
561.29	674.24
561.742	670.64
562.195	657.94
562.647	650.44
563.099	662.34
563.551	661.54
564.004	683.74
564.456	655.14
564.908	652.94
565.36	640.84
565.812	619.04
566.264	618.24
566.716	624.74
567.168	617.34
567.62	623.74
568.072	601.84
568.524	588.34
568.976	585.34
569.428	578.84
569.88	573.54
570.332	578.74
570.784	580.94
571.235	577.74
571.687	591.94
572.139	592.94
572.59	606.04
573.042	604.84
573.494	614.84
573.945	604.44
574.397	577.84
574.849	588.74
575.3	584.94
575.752	587.54
576.203	572.34
576.655	583.24
577.106	573.04
577.557	556.04
578.009	563.34
578.46	563.34
578.912	556.84
579.363	560.04
579.814	561.34
580.265	557.44
580.717	568.04
581.168	569.94
581.619	566.54
582.07	572.24
582.521	560.54
582.972	561.54
583.423	572.64
583.875	570.74
584.326	585.84
584.777	638.84
585.227	686.94
585.678	739.34
586.129	832.24
586.58	889.84
587.031	958.94
587.482	1095.94
587.933	1259.64
588.384	1087.14
588.834	802.44
589.285	678.54
589.736	651.04
590.186	638.74
590.637	641.54
591.088	620.74
591.538	613.54
591.989	610.94
592.439	609.64
592.89	600.94
593.34	592.74
593.791	597.04
594.241	592.84
594.692	589.04
595.142	583.84
595.593	580.44
596.043	588.94
596.493	593.94
596.943	582.94
597.394	593.24
597.844	581.34
598.294	596.84
598.744	623.04
599.195	644.34
599.645	666.54
600.095	713.34
600.545	745.34
600.995	784.14
601.445	845.84
601.895	899.34
602.345	937.54
602.795	921.44
603.245	888.34
603.695	845.84
604.145	798.34
604.594	749.54
605.044	702.64
605.494	668.64
605.944	638.24
606.393	611.24
606.843	605.64
607.293	600.04
607.743	604.54
608.192	608.94
608.642	616.54
609.091	630.64
609.541	622.74
609.99	616.04
610.44	623.14
610.889	589.44
611.339	574.54
611.788	561.74
612.238	572.14
612.687	580.94
613.136	595.94
613.586	605.74
614.035	597.44
614.484	616.04
614.933	610.94
615.383	609.94
615.832	603.54
616.281	582.64
616.73	553.74
617.179	552.24
617.628	534.94
618.077	519.74
618.526	507.54
618.975	499.84
619.424	505.84
619.873	498.94
620.322	514.94
620.771	493.64
621.22	493.24
621.669	486.84
622.118	483.94
622.567	479.04
623.015	458.24
623.464	462.24
623.913	463.44
624.361	450.34
624.81	446.04
625.259	454.24
625.707	454.94
626.156	449.64
626.604	467.44
627.053	454.64
627.501	459.74
627.95	457.04
628.398	462.74
628.847	458.54
629.295	461.24
629.744	461.24
630.192	458.14
630.64	466.74
631.089	460.14
631.537	457.24
631.985	463.04
632.433	481.64
632.881	479.14
633.33	524.24
633.778	506.14
634.226	450.74
634.674	455.54
635.122	453.54
635.57	486.64
636.018	498.54
636.466	466.74
636.914	458.74
637.362	462.44
637.81	459.84
638.258	468.64
638.705	470.44
639.153	494.64
639.601	498.24
640.049	512.64
640.497	535.94
640.944	561.64
641.392	524.44
641.84	488.64
642.287	469.84
642.735	457.44
643.182	465.74
643.63	460.04
644.078	459.94
644.525	468.44
644.973	476.84
645.42	482.14
645.867	499.54
646.315	505.94
646.762	526.14
647.21	542.04
647.657	558.54
648.104	605.54
648.551	618.54
648.999	666.34
649.446	724.84
649.893	787.54
650.34	918.34
650.787	1070.34
651.234	1329.64
651.682	1727.94
652.129	2377.54
652.576	3386.54
653.023	5050.44
653.47	6972.74
653.917	8796.64
654.363	10357.04
654.81	11729.24
655.257	11151.94
655.704	7229.34
656.151	4229.34
656.598	2749.34
657.044	1940.64
657.491	1490.54
657.938	1185.24
658.385	983.94
658.831	855.14
659.278	762.54
659.724	676.44
660.171	628.34
660.618	569.34
661.064	543.14
661.511	519.34
661.957	509.54
662.404	491.24
662.85	505.14
663.296	482.44
663.743	449.14
664.189	426.34
664.635	419.94
665.082	420.64
665.528	416.44
665.974	405.14
666.42	411.44
666.867	401.74
667.313	391.34
667.759	373.84
668.205	380.04
668.651	378.84
669.097	380.34
669.543	394.64
669.989	373.54
670.435	348.94
670.881	348.44
671.327	359.14
671.773	367.44
672.219	383.44
672.665	428.24
673.11	451.54
673.556	503.84
674.002	532.44
674.448	515.74
674.893	440.64
675.339	375.54
675.785	348.84
676.23	337.84
676.676	308.04
677.122	306.44
677.567	293.04
678.013	291.04
678.458	288.54
678.904	285.64
679.349	274.14
679.794	281.84
680.24	279.34
680.685	273.64
681.131	270.54
681.576	274.34
682.021	282.84
682.466	269.14
682.912	274.64
683.357	279.94
683.802	298.74
684.247	308.64
684.692	346.64
685.137	386.74
685.583	422.74
686.028	443.14
686.473	410.04
686.918	351.94
687.363	321.04
687.807	306.74
688.252	285.54
688.697	276.54
689.142	266.64
689.587	258.54
690.032	252.44
690.477	269.34
690.921	272.64
691.366	300.04
691.811	314.44
692.255	343.24
692.7	359.04
693.145	388.54
693.589	530.54
694.034	858.34
694.478	1197.74
694.923	1396.04
695.367	1845.84
695.812	958.64
696.256	395.04
696.701	284.54
697.145	274.24
697.59	251.74
698.034	251.24
698.478	260.64
698.922	255.54
699.367	250.64
699.811	264.04
700.255	277.44
700.699	305.54
701.143	332.34
701.588	368.34
702.032	411.74
702.476	401.54
702.92	384.14
703.364	382.44
703.808	491.14
704.252	784.74
704.696	1118.74
705.14	1336.74
705.584	1734.24
706.027	841.04
706.471	416.54
706.915	312.54
707.359	271.64
707.803	250.14
708.246	241.84
708.69	247.94
709.134	243.24
709.577	243.64
710.021	248.34
710.465	248.04
710.908	234.84
711.352	230.44
711.795	243.14
712.239	268.94
712.682	287.04
713.126	327.44
713.569	369.94
714.012	293.24
714.456	252.44
714.899	234.14
715.342	213.34
715.786	201.74
716.229	207.74
716.672	203.34
717.115	194.84
717.558	188.34
718.002	193.54
718.445	206.24
718.888	221.14
719.331	228.94
719.774	238.94
720.217	238.04
720.66	215.54
721.103	207.74
721.546	200.14
721.989	194.74
722.432	172.24
722.874	186.84
723.317	177.04
723.76	190.74
724.203	199.74
724.645	237.24
725.088	343.64
725.531	446.14
725.974	512.64
726.416	437.94
726.859	244.44
727.301	191.84
727.744	188.34
728.187	183.44
728.629	189.54
729.071	183.44
729.514	197.84
729.956	212.54
730.399	215.84
730.841	219.64
731.283	211.44
731.726	205.94
732.168	193.94
732.61	206.74
733.053	217.34
733.495	247.34
733.937	264.64
734.379	310.74
734.821	332.04
735.263	418.24
735.705	624.44
736.148	1185.04
736.59	1992.24
737.032	2494.34
737.474	2018.94
737.916	632.34
738.357	338.44
738.799	252.54
739.241	227.14
739.683	219.54
740.125	233.14
740.567	237.24
741.008	253.24
741.45	247.94
741.892	243.84
742.334	274.74
742.775	290.44
743.217	262.74
743.658	208.04
744.1	192.94
744.542	200.14
744.983	241.84
745.425	275.54
745.866	278.74
746.307	223.74
746.749	219.84
747.19	249.44
747.632	338.74
748.073	654.14
748.514	1403.34
748.956	2251.14
749.397	2810.04
749.838	2343.34
750.279	2414.74
750.72	1209.04
751.162	426.84
751.603	256.84
752.044	197.74
752.485	168.84
752.926	160.84
753.367	159.94
753.808	150.64
754.249	144.74
754.69	144.54
755.131	138.94
755.572	130.94
756.013	140.24
756.453	142.84
756.894	141.64
757.335	141.74
757.776	147.74
758.216	151.14
758.657	155.24
759.098	154.64
759.538	181.04
759.979	207.94
760.42	279.14
760.86	534.24
761.301	1366.84
761.741	3406.74
762.182	5301.24
762.622	3748.94
763.063	1058.64
