Data from 20171114-ORNL-Ar_H_NY_Subt18_08-03-11-562.txt Node
Date: Tue Nov 14 08:03:11 EST 2017
User: Ender
Spectrometer: HR+D1039
Trigger mode: 0
Integration Time (sec): 2.730000E-2
Scans to average: 10
Electric dark correction enabled: true
Nonlinearity correction enabled: false
Boxcar width: 0
XAxis mode: Wavelengths
Number of Pixels in Spectrum: 2048
>>>>>Begin Spectral Data<<<<<
187.836	-6.34
188.309	-6.34
188.782	-6.34
189.255	1.36
189.728	-2.64
190.201	5.86
190.674	2.76
191.147	1.96
191.619	-4.94
192.092	3.36
192.565	8.46
193.038	0.26
193.511	-1.64
193.984	-1.34
194.456	-0.24
194.929	-0.24
195.402	-4.04
195.874	-2.64
196.347	3.56
196.82	-9.34
197.292	0.56
197.765	-1.64
198.237	-6.94
198.71	3.96
199.182	-4.64
199.655	2.76
200.127	-1.24
200.6	-3.04
201.072	-8.04
201.544	-8.44
202.017	-4.44
202.489	-1.04
202.961	-4.74
203.433	-8.84
203.906	-9.54
204.378	-2.64
204.85	-3.94
205.322	-11.14
205.794	-4.64
206.266	-1.64
206.739	-8.44
207.211	-0.14
207.683	-11.14
208.155	-1.04
208.627	-3.84
209.099	-5.34
209.57	-11.64
210.042	-3.04
210.514	-1.64
210.986	-7.74
211.458	-10.24
211.93	-4.24
212.402	-0.14
212.873	-2.44
213.345	-9.14
213.817	-15.94
214.288	-2.84
214.76	-6.04
215.232	-1.64
215.703	-7.04
216.175	-11.04
216.646	-1.24
217.118	-11.04
217.589	-5.14
218.061	-2.84
218.532	-5.04
219.004	-4.24
219.475	-4.44
219.946	-8.34
220.418	-11.34
220.889	-1.94
221.36	-3.94
221.832	-9.94
222.303	-6.84
222.774	-1.34
223.245	-10.84
223.717	-1.04
224.188	-6.14
224.659	-8.74
225.13	-5.94
225.601	-5.04
226.072	-6.84
226.543	-0.84
227.014	0.26
227.485	-5.04
227.956	-8.24
228.427	-1.44
228.898	-8.04
229.369	5.96
229.839	-5.74
230.31	-10.74
230.781	-7.64
231.252	-5.14
231.722	-10.34
232.193	-9.54
232.664	-7.24
233.135	-5.84
233.605	-11.24
234.076	-10.04
234.546	-0.64
235.017	-0.44
235.487	-8.44
235.958	-7.74
236.428	-5.44
236.899	-7.84
237.369	-1.74
237.84	-6.84
238.31	-3.54
238.78	-9.04
239.251	-9.64
239.721	-8.44
240.191	-5.34
240.662	-2.44
241.132	-3.74
241.602	-9.84
242.072	-8.14
242.542	-3.44
243.013	-5.94
243.483	-1.34
243.953	-5.24
244.423	-9.04
244.893	-6.74
245.363	-4.14
245.833	-6.24
246.303	-6.44
246.773	-1.54
247.243	-1.14
247.712	-7.94
248.182	2.36
248.652	-2.94
249.122	-10.64
249.592	1.86
250.061	3.26
250.531	-0.34
251.001	-8.74
251.471	-1.84
251.94	4.76
252.41	-7.24
252.879	-11.54
253.349	2.86
253.818	-2.94
254.288	-6.14
254.757	-0.74
255.227	-8.84
255.696	-7.04
256.166	-5.34
256.635	-6.24
257.105	-6.64
257.574	-7.44
258.043	-3.34
258.513	-6.54
258.982	1.16
259.451	-6.84
259.92	-3.94
260.389	-3.44
260.859	3.26
261.328	-5.44
261.797	0.06
262.266	-3.54
262.735	-3.14
263.204	-4.34
263.673	-6.24
264.142	-4.04
264.611	-8.94
265.08	-9.44
265.549	-9.84
266.018	-6.14
266.487	-12.54
266.955	-12.24
267.424	-13.64
267.893	-5.94
268.362	-6.74
268.83	-10.34
269.299	-5.44
269.768	-8.34
270.236	-6.94
270.705	-12.04
271.174	-8.24
271.642	-8.44
272.111	-4.54
272.579	-4.54
273.048	-5.34
273.516	-8.14
273.985	-2.04
274.453	-2.74
274.922	0.26
275.39	-3.64
275.858	-13.34
276.327	-6.44
276.795	-0.34
277.263	-7.94
277.731	2.26
278.2	-9.44
278.668	-5.24
279.136	-5.04
279.604	-4.34
280.072	-5.94
280.54	-5.94
281.008	-6.24
281.477	-2.74
281.945	-2.74
282.413	-2.04
282.881	-4.04
283.348	-8.34
283.816	1.36
284.284	-4.24
284.752	-2.64
285.22	-10.74
285.688	-2.94
286.156	-6.54
286.623	-3.84
287.091	-7.64
287.559	-2.14
288.026	-4.14
288.494	-4.74
288.962	-12.54
289.429	-6.44
289.897	-2.44
290.364	-3.54
290.832	-4.24
291.3	-1.04
291.767	-1.24
292.234	0.66
292.702	-10.84
293.169	-1.34
293.637	3.26
294.104	0.16
294.571	-4.44
295.039	-9.94
295.506	-9.54
295.973	-2.74
296.44	-8.34
296.908	-6.94
297.375	-12.94
297.842	-4.54
298.309	-11.74
298.776	-10.04
299.243	-3.54
299.71	-12.94
300.177	-0.04
300.644	-5.14
301.111	-2.04
301.578	0.96
302.045	-10.24
302.512	-1.34
302.979	-1.84
303.446	-9.04
303.913	-8.14
304.379	-8.94
304.846	-4.94
305.313	-4.44
305.78	-6.24
306.246	-1.84
306.713	1.36
307.18	-7.54
307.646	0.26
308.113	-5.14
308.579	-8.44
309.046	-6.24
309.512	-2.44
309.979	-12.14
310.445	-6.24
310.912	-3.34
311.378	1.16
311.845	-5.94
312.311	-3.34
312.777	-1.84
313.244	-2.94
313.71	-0.14
314.176	-4.54
314.642	-9.04
315.109	-10.14
315.575	-0.94
316.041	0.06
316.507	-7.44
316.973	-2.24
317.439	-7.84
317.905	5.56
318.371	1.06
318.837	1.66
319.303	-3.44
319.769	-5.74
320.235	-8.84
320.701	-3.64
321.167	-3.74
321.633	-9.04
322.099	-3.04
322.564	2.66
323.03	-5.34
323.496	-3.64
323.962	-11.54
324.427	-5.84
324.893	-4.44
325.359	-9.54
325.824	-5.64
326.29	-4.84
326.755	-3.44
327.221	-5.34
327.686	-6.54
328.152	0.96
328.617	-3.44
329.083	-3.74
329.548	2.16
330.014	1.26
330.479	-8.84
330.944	-2.74
331.41	-4.24
331.875	-1.44
332.34	-6.24
332.805	-6.54
333.271	-8.74
333.736	-14.34
334.201	1.76
334.666	-0.14
335.131	2.26
335.596	-3.04
336.061	-0.34
336.526	-15.04
336.991	-0.94
337.456	-3.84
337.921	-3.74
338.386	-7.44
338.851	-7.04
339.316	-3.34
339.781	-4.04
340.246	2.06
340.711	-9.64
341.175	1.56
341.64	-7.24
342.105	-9.64
342.569	-1.04
343.034	-0.04
343.499	-5.24
343.963	-15.74
344.428	3.06
344.893	-2.54
345.357	-5.24
345.822	-7.54
346.286	-7.04
346.751	-2.14
347.215	-7.34
347.679	-12.44
348.144	-5.74
348.608	2.66
349.073	-1.14
349.537	-3.54
350.001	-8.34
350.465	-1.54
350.93	-1.04
351.394	-0.44
351.858	-10.74
352.322	-3.74
352.786	-8.94
353.25	-3.54
353.715	1.66
354.179	-0.74
354.643	-0.24
355.107	-4.64
355.571	-5.54
356.035	-2.24
356.498	-4.94
356.962	-7.44
357.426	0.26
357.89	-0.04
358.354	1.86
358.818	1.16
359.281	-9.34
359.745	-2.54
360.209	-3.74
360.673	-10.64
361.136	-4.54
361.6	0.66
362.064	-5.14
362.527	-11.64
362.991	-0.04
363.454	-9.24
363.918	-8.14
364.381	-8.04
364.845	-5.44
365.308	-1.14
365.772	-0.94
366.235	-3.84
366.698	-3.44
367.162	-0.94
367.625	-11.14
368.088	-11.04
368.552	-11.74
369.015	-6.64
369.478	-3.24
369.941	-2.74
370.404	-11.54
370.867	-3.84
371.331	-1.64
371.794	-3.94
372.257	-6.54
372.72	2.26
373.183	-2.24
373.646	-9.64
374.109	-5.04
374.572	-4.34
375.035	-8.14
375.497	-6.64
375.96	-5.74
376.423	-6.74
376.886	-4.04
377.349	-11.44
377.811	-10.94
378.274	-2.94
378.737	-4.64
379.199	-5.94
379.662	-10.74
380.125	-7.74
380.587	-6.34
381.05	-11.24
381.512	-2.24
381.975	-1.14
382.437	1.56
382.9	-5.04
383.362	-5.74
383.825	-2.34
384.287	-5.04
384.75	-13.94
385.212	-7.84
385.674	-7.64
386.136	2.46
386.599	-6.44
387.061	-3.94
387.523	-4.24
387.985	-8.44
388.447	-5.34
388.91	-0.34
389.372	-2.34
389.834	-3.54
390.296	-5.64
390.758	-4.04
391.22	-3.14
391.682	-4.84
392.144	0.66
392.606	0.36
393.068	4.76
393.529	-0.44
393.991	-12.14
394.453	-3.24
394.915	6.46
395.377	-4.04
395.838	-4.94
396.3	-1.44
396.762	0.16
397.224	0.96
397.685	-5.64
398.147	-4.24
398.608	-4.04
399.07	-12.64
399.531	-6.14
399.993	-2.54
400.454	-1.04
400.916	-6.74
401.377	-12.64
401.839	-2.94
402.3	-9.44
402.762	-2.84
403.223	-2.34
403.684	-0.74
404.145	-10.54
404.607	-7.34
405.068	-5.24
405.529	-7.94
405.99	-7.24
406.451	-14.54
406.913	-6.14
407.374	-0.34
407.835	-8.64
408.296	-4.34
408.757	-2.34
409.218	-2.64
409.679	-8.14
410.14	-5.64
410.601	0.56
411.062	-3.74
411.522	2.26
411.983	-3.44
412.444	-11.64
412.905	-5.54
413.366	-10.24
413.826	-7.04
414.287	-7.94
414.748	-3.54
415.208	0.76
415.669	-2.84
416.13	4.66
416.59	1.96
417.051	-0.44
417.511	-5.54
417.972	-4.64
418.432	-10.34
418.893	-2.14
419.353	2.26
419.814	-7.44
420.274	0.96
420.734	-4.84
421.195	-4.84
421.655	-8.24
422.115	-6.64
422.576	-0.04
423.036	-4.24
423.496	0.36
423.956	3.86
424.416	-9.94
424.876	-3.74
425.336	-4.74
425.797	-2.34
426.257	-2.64
426.717	-12.54
427.177	2.86
427.637	-4.74
428.097	-4.24
428.556	-5.74
429.016	-7.74
429.476	-8.54
429.936	-1.54
430.396	-5.64
430.856	-4.44
431.315	2.06
431.775	-4.04
432.235	2.06
432.694	-13.54
433.154	-7.34
433.614	-7.54
434.073	-8.64
434.533	-0.54
434.993	-9.44
435.452	-6.54
435.912	-3.44
436.371	-6.34
436.83	-8.34
437.29	-1.24
437.749	-9.94
438.209	-5.64
438.668	-3.84
439.127	-4.94
439.587	-0.74
440.046	-6.64
440.505	-9.84
440.964	-5.14
441.424	-4.14
441.883	-1.74
442.342	2.76
442.801	-10.64
443.26	-3.24
443.719	-0.04
444.178	-6.04
444.637	-15.54
445.096	-6.74
445.555	-2.94
446.014	-3.54
446.473	1.56
446.932	-8.64
447.391	-8.84
447.849	-7.44
448.308	-11.64
448.767	-7.74
449.226	-6.34
449.685	-6.94
450.143	4.56
450.602	-7.04
451.061	-10.24
451.519	-7.64
451.978	-9.64
452.436	-4.94
452.895	-9.14
453.353	-4.34
453.812	-2.34
454.27	-4.24
454.729	-3.04
455.187	-2.94
455.646	-4.14
456.104	-2.44
456.562	-5.14
457.021	-7.74
457.479	-1.74
457.937	-4.34
458.395	-2.24
458.854	-9.24
459.312	-5.54
459.77	-9.54
460.228	-4.64
460.686	-11.44
461.144	-1.24
461.602	-3.24
462.06	-6.64
462.518	0.36
462.976	-5.74
463.434	-4.94
463.892	-5.04
464.35	-9.64
464.808	-3.04
465.266	-7.04
465.724	-0.64
466.181	-6.44
466.639	-6.14
467.097	-0.34
467.555	-5.64
468.012	0.26
468.47	-0.24
468.928	-4.24
469.385	-0.94
469.843	-2.44
470.3	0.26
470.758	-2.54
471.215	-2.34
471.673	-2.04
472.13	-2.74
472.588	-2.04
473.045	-3.44
473.503	-4.24
473.96	-9.14
474.417	-7.34
474.875	-11.64
475.332	0.46
475.789	-0.94
476.246	-1.04
476.704	-6.04
477.161	-2.84
477.618	-9.64
478.075	-9.14
478.532	-0.44
478.989	-4.94
479.446	-2.24
479.903	1.66
480.36	3.46
480.817	-11.24
481.274	-1.54
481.731	-3.74
482.188	-9.74
482.645	0.16
483.102	-9.54
483.558	-0.54
484.015	-4.54
484.472	4.46
484.929	-4.34
485.385	-1.04
485.842	-5.34
486.299	-6.14
486.755	-2.34
487.212	-4.44
487.668	-9.44
488.125	-0.34
488.582	4.16
489.038	3.96
489.494	-4.54
489.951	-2.04
490.407	-0.44
490.864	-8.94
491.32	1.96
491.776	3.16
492.233	-5.14
492.689	-12.74
493.145	-5.04
493.602	-4.44
494.058	-3.54
494.514	-7.24
494.97	-1.34
495.426	-7.94
495.882	-8.14
496.338	-3.14
496.794	2.36
497.251	-6.84
497.707	-2.24
498.163	1.56
498.618	-1.44
499.074	-3.24
499.53	-1.64
499.986	-3.94
500.442	-8.74
500.898	-6.44
501.354	-10.04
501.809	-2.64
502.265	-11.84
502.721	1.56
503.177	0.66
503.632	-3.14
504.088	1.06
504.543	0.06
504.999	-7.74
505.455	-3.54
505.91	-3.54
506.366	-3.64
506.821	-5.04
507.277	-9.24
507.732	-7.74
508.187	-6.24
508.643	-5.84
509.098	-8.04
509.553	-2.64
510.009	1.26
510.464	-10.04
510.919	4.16
511.375	-10.24
511.83	-1.04
512.285	-3.44
512.74	0.96
513.195	1.56
513.65	1.36
514.105	-9.54
514.56	-7.14
515.015	-5.74
515.47	-0.54
515.925	-1.14
516.38	-3.74
516.835	3.26
517.29	-1.24
517.745	-3.34
518.2	-6.14
518.655	-7.44
519.109	-7.84
519.564	2.06
520.019	-7.84
520.474	-9.04
520.928	-4.24
521.383	-1.74
521.838	-9.14
522.292	-10.84
522.747	1.26
523.201	2.76
523.656	-2.64
524.11	-1.04
524.565	-1.24
525.019	-11.64
525.474	-6.74
525.928	-5.04
526.382	-9.54
526.837	-5.24
527.291	-11.24
527.745	-6.84
528.2	-3.34
528.654	-4.24
529.108	-2.54
529.562	-7.44
530.016	-7.84
530.47	-9.24
530.925	-4.14
531.379	-4.54
531.833	-14.84
532.287	-7.74
532.741	-10.14
533.195	-8.84
533.649	-3.44
534.103	3.46
534.556	-6.84
535.01	-7.34
535.464	-3.44
535.918	-0.24
536.372	-7.44
536.826	-4.14
537.279	-8.04
537.733	-7.44
538.187	-4.74
538.64	-9.04
539.094	-1.34
539.548	-5.04
540.001	-8.54
540.455	-6.94
540.908	-6.24
541.362	-3.54
541.815	-7.94
542.269	-4.34
542.722	-9.94
543.175	-5.24
543.629	-9.64
544.082	-2.34
544.536	-8.04
544.989	-1.14
545.442	0.56
545.895	-4.94
546.349	-10.24
546.802	-12.34
547.255	-12.24
547.708	-7.04
548.161	-11.94
548.614	-3.04
549.067	2.36
549.52	-7.54
549.973	-0.24
550.426	-2.64
550.879	-10.64
551.332	-13.74
551.785	-9.94
552.238	-2.84
552.691	0.56
553.144	-1.04
553.596	-9.94
554.049	-8.94
554.502	-0.84
554.955	-5.44
555.407	-11.44
555.86	-6.44
556.313	-3.54
556.765	-5.14
557.218	3.36
557.67	-1.44
558.123	-2.44
558.576	-9.34
559.028	-4.94
559.48	-6.54
559.933	-8.24
560.385	-4.84
560.838	-5.04
561.29	-8.04
561.742	-4.54
562.195	-9.04
562.647	-4.54
563.099	4.06
563.551	1.16
564.004	4.46
564.456	-1.54
564.908	-3.54
565.36	-3.64
565.812	-1.64
566.264	-6.44
566.716	1.36
567.168	-6.04
567.62	-2.74
568.072	-4.54
568.524	-4.64
568.976	-1.54
569.428	-9.24
569.88	-4.94
570.332	-7.34
570.784	-1.84
571.235	-9.44
571.687	-6.74
572.139	0.16
572.59	1.36
573.042	-5.74
573.494	-2.64
573.945	-0.94
574.397	-10.74
574.849	-1.34
575.3	-7.64
575.752	1.06
576.203	-8.54
576.655	-2.44
577.106	-4.14
577.557	-3.44
578.009	1.46
578.46	-9.54
578.912	-4.34
579.363	-11.14
579.814	-8.34
580.265	-12.94
580.717	-6.34
581.168	-8.24
581.619	0.66
582.07	-4.84
582.521	-4.44
582.972	-7.44
583.423	-2.04
583.875	-2.94
584.326	-8.24
584.777	-6.54
585.227	2.36
585.678	-5.44
586.129	-11.84
586.58	-4.74
587.031	1.16
587.482	2.56
587.933	-1.54
588.384	-1.14
588.834	-4.94
589.285	-2.54
589.736	1.06
590.186	-4.24
590.637	1.16
591.088	-0.54
591.538	-1.84
591.989	-1.64
592.439	1.36
592.89	-4.54
593.34	-3.54
593.791	-5.54
594.241	-9.44
594.692	-2.74
595.142	-11.34
595.593	-0.44
596.043	-3.04
596.493	-4.44
596.943	-2.04
597.394	-8.94
597.844	-11.24
598.294	-7.14
598.744	2.66
599.195	-0.94
599.645	-0.04
600.095	-7.24
600.545	-5.84
600.995	-5.34
601.445	1.26
601.895	-8.44
602.345	-2.84
602.795	-4.04
603.245	-5.94
603.695	-4.84
604.145	-11.34
604.594	-2.94
605.044	-12.94
605.494	-7.04
605.944	-12.54
606.393	-4.04
606.843	-6.24
607.293	-3.34
607.743	-7.44
608.192	-6.44
608.642	3.96
609.091	6.46
609.541	4.36
609.99	-7.34
610.44	-1.24
610.889	-8.84
611.339	-7.44
611.788	-9.54
612.238	-3.64
612.687	9.26
613.136	-8.44
613.586	-0.54
614.035	-7.64
614.484	-6.34
614.933	-10.64
615.383	0.46
615.832	-0.44
616.281	-0.74
616.73	-2.44
617.179	6.36
617.628	-2.24
618.077	-5.34
618.526	-5.94
618.975	-8.54
619.424	0.06
619.873	-10.74
620.322	1.06
620.771	-10.24
621.22	-0.34
621.669	-6.04
622.118	-8.84
622.567	-4.64
623.015	-9.84
623.464	-5.44
623.913	-10.54
624.361	-5.74
624.81	-6.44
625.259	-10.34
625.707	3.36
626.156	-4.24
626.604	1.26
627.053	-8.94
627.501	-8.34
627.95	-12.84
628.398	-11.54
628.847	-11.44
629.295	-7.64
629.744	-8.64
630.192	-3.84
630.64	-3.24
631.089	-7.24
631.537	-2.54
631.985	-5.94
632.433	-1.64
632.881	-9.24
633.33	-8.84
633.778	-7.14
634.226	-12.64
634.674	-2.84
635.122	-0.54
635.57	-8.14
636.018	-6.54
636.466	-1.14
636.914	-17.04
637.362	-0.64
637.81	1.36
638.258	-2.14
638.705	-5.34
639.153	2.46
639.601	-3.74
640.049	-11.84
640.497	-10.44
640.944	1.46
641.392	-10.84
641.84	-0.64
642.287	-4.24
642.735	-9.14
643.182	-4.04
643.63	-12.04
644.078	-11.54
644.525	-3.44
644.973	-8.64
645.42	-4.64
645.867	-2.74
646.315	0.66
646.762	-8.04
647.21	-1.04
647.657	-7.94
648.104	-1.94
648.551	-6.94
648.999	-3.94
649.446	-4.24
649.893	-9.24
650.34	-5.94
650.787	-9.54
651.234	-4.54
651.682	-3.24
652.129	-9.54
652.576	-10.94
653.023	1.06
653.47	1.86
653.917	-10.64
654.363	-4.24
654.81	-9.24
655.257	-7.44
655.704	-2.64
656.151	-8.04
656.598	-1.64
657.044	-3.84
657.491	-8.84
657.938	-8.04
658.385	-1.14
658.831	-3.74
659.278	-1.74
659.724	-7.94
660.171	1.66
660.618	-12.84
661.064	-2.94
661.511	-4.24
661.957	-3.04
662.404	-8.74
662.85	0.86
663.296	-2.44
663.743	-2.44
664.189	-7.84
664.635	-3.64
665.082	-11.04
665.528	-5.64
665.974	-7.04
666.42	-6.04
666.867	-5.44
667.313	-7.54
667.759	-0.14
668.205	-6.34
668.651	-0.84
669.097	-2.84
669.543	-12.94
669.989	-5.54
670.435	-7.24
670.881	-9.14
671.327	-6.44
671.773	-3.54
672.219	-11.94
672.665	2.86
673.11	-14.94
673.556	-9.34
674.002	-3.74
674.448	-6.64
674.893	-3.34
675.339	-6.34
675.785	-2.24
676.23	5.46
676.676	-7.34
677.122	-9.14
677.567	-4.24
678.013	2.06
678.458	-10.04
678.904	-3.54
679.349	-15.14
679.794	-2.94
680.24	-8.64
680.685	-8.74
681.131	-7.84
681.576	-6.04
682.021	-2.94
682.466	-1.54
682.912	-7.44
683.357	-8.74
683.802	-2.24
684.247	-8.94
684.692	-3.54
685.137	-9.04
685.583	-2.94
686.028	-7.54
686.473	-4.44
686.918	-10.64
687.363	6.16
687.807	-2.94
688.252	-9.74
688.697	1.36
689.142	-6.64
689.587	-10.84
690.032	-16.14
690.477	-8.44
690.921	-8.44
691.366	-5.34
691.811	-10.34
692.255	2.56
692.7	-1.24
693.145	-2.74
693.589	-3.14
694.034	-10.54
694.478	-1.94
694.923	1.16
695.367	-1.44
695.812	-6.44
696.256	-6.64
696.701	-3.34
697.145	-1.64
697.59	-7.14
698.034	-10.84
698.478	-3.84
698.922	-2.94
699.367	-5.94
699.811	2.86
700.255	-3.54
700.699	2.06
701.143	-10.14
701.588	-5.84
702.032	-0.54
702.476	-7.34
702.92	-6.14
703.364	-4.44
703.808	-8.34
704.252	-2.74
704.696	-10.54
705.14	-5.44
705.584	-3.04
706.027	-1.64
706.471	-5.74
706.915	-10.24
707.359	-6.14
707.803	-9.94
708.246	-6.04
708.69	2.86
709.134	-0.64
709.577	-3.54
710.021	0.06
710.465	-1.94
710.908	-11.44
711.352	-9.84
711.795	-8.04
712.239	1.66
712.682	-12.64
713.126	-6.94
713.569	-8.24
714.012	5.96
714.456	4.06
714.899	-6.94
715.342	-9.44
715.786	-4.34
716.229	-4.04
716.672	-3.24
717.115	-5.44
717.558	-5.94
718.002	-6.74
718.445	-4.54
718.888	0.46
719.331	-6.94
719.774	2.66
720.217	-0.74
720.66	-5.14
721.103	-13.04
721.546	-7.64
721.989	-1.54
722.432	-17.14
722.874	-1.24
723.317	-11.04
723.76	-14.14
724.203	-4.14
724.645	0.06
725.088	-6.34
725.531	-10.04
725.974	-14.14
726.416	-4.84
726.859	-2.34
727.301	-10.24
727.744	-4.34
728.187	-11.14
728.629	-1.84
729.071	-4.54
729.514	-4.04
729.956	-9.84
730.399	-2.24
730.841	-4.34
731.283	-7.94
731.726	-2.14
732.168	-5.14
732.61	-3.94
733.053	-2.84
733.495	-8.94
733.937	-7.54
734.379	-5.14
734.821	-6.14
735.263	-8.54
735.705	-12.64
736.148	-12.94
736.59	-2.54
737.032	-9.94
737.474	-7.64
737.916	-12.74
738.357	-6.74
738.799	-11.44
739.241	-7.04
739.683	-10.94
740.125	-0.74
740.567	-7.24
741.008	-2.14
741.45	3.26
741.892	-3.24
742.334	2.56
742.775	-7.34
743.217	-6.74
743.658	-11.04
744.1	-2.44
744.542	-8.04
744.983	-4.64
745.425	-3.74
745.866	-0.74
746.307	-2.14
746.749	0.06
747.19	-0.44
747.632	2.56
748.073	-9.34
748.514	-2.94
748.956	-6.94
749.397	-9.24
749.838	-3.74
750.279	-7.14
750.72	-5.14
751.162	0.66
751.603	-1.84
752.044	-6.14
752.485	-13.84
752.926	-7.74
753.367	-1.54
753.808	-1.34
754.249	-2.44
754.69	-6.84
755.131	-8.74
755.572	-11.44
756.013	-12.54
756.453	-5.34
756.894	-2.64
757.335	-9.34
757.776	-0.64
758.216	-1.34
758.657	-4.34
759.098	-13.14
759.538	-10.64
759.979	-5.44
760.42	-13.84
760.86	-7.74
761.301	-6.24
761.741	-2.54
762.182	-12.74
762.622	-11.44
763.063	-9.44
763.503	-7.14
763.943	-1.84
764.384	0.36
764.824	-3.74
765.264	-10.04
765.705	-2.84
766.145	-7.24
766.585	-9.44
767.025	-10.84
767.465	-15.94
767.906	-1.04
768.346	-3.74
768.786	-9.84
769.226	-8.34
769.666	-5.84
770.106	-4.54
770.546	-7.14
770.986	-9.94
771.426	-8.54
771.866	-5.04
772.306	-8.54
772.745	-9.24
773.185	-11.64
773.625	5.16
774.065	-8.54
774.505	-4.94
774.944	-9.84
775.384	-5.24
775.824	-7.54
776.263	-8.64
776.703	-5.34
777.142	-3.84
777.582	-7.04
778.021	-7.24
778.461	-5.14
778.9	-3.94
779.34	-4.74
779.779	-8.54
780.219	-8.24
780.658	-11.14
781.097	-10.34
781.537	0.16
781.976	-6.74
782.415	-6.44
782.855	-9.74
783.294	-7.14
783.733	-5.84
784.172	-4.34
784.611	-6.84
785.05	-4.14
785.489	-3.94
785.928	-3.04
786.367	-0.14
786.806	-4.94
787.245	1.36
787.684	-9.64
788.123	1.86
788.562	-9.34
