Data from 20171114-ORNL-Ar_H_NY_Subt18_08-04-17-349.txt Node
Date: Tue Nov 14 08:04:17 EST 2017
User: Ender
Spectrometer: HR+D1039
Trigger mode: 0
Integration Time (sec): 2.730000E-2
Scans to average: 10
Electric dark correction enabled: true
Nonlinearity correction enabled: false
Boxcar width: 0
XAxis mode: Wavelengths
Number of Pixels in Spectrum: 2048
>>>>>Begin Spectral Data<<<<<
187.836	-3.74
188.309	-3.74
188.782	-3.74
189.255	-1.44
189.728	-5.74
190.201	3.56
190.674	7.56
191.147	-0.04
191.619	-8.24
192.092	0.26
192.565	9.36
193.038	1.16
193.511	0.06
193.984	-0.34
194.456	-2.24
194.929	2.36
195.402	-2.54
195.874	0.06
196.347	1.56
196.82	-0.54
197.292	3.46
197.765	-0.04
198.237	-8.74
198.71	1.96
199.182	-0.44
199.655	6.86
200.127	-1.84
200.6	-1.64
201.072	-5.44
201.544	-4.84
202.017	-4.44
202.489	0.36
202.961	-3.44
203.433	-1.64
203.906	-2.44
204.378	-7.24
204.85	-4.54
205.322	-8.64
205.794	-3.94
206.266	1.26
206.739	-7.74
207.211	6.66
207.683	-3.44
208.155	-6.04
208.627	-6.74
209.099	-1.44
209.57	-11.54
210.042	-2.24
210.514	-3.24
210.986	-1.54
211.458	-7.34
211.93	-5.64
212.402	-0.54
212.873	-9.74
213.345	-9.24
213.817	-8.54
214.288	1.76
214.76	-6.54
215.232	-6.64
215.703	-0.74
216.175	-4.84
216.646	-2.24
217.118	-9.14
217.589	-4.04
218.061	-0.34
218.532	3.86
219.004	-4.84
219.475	-0.64
219.946	-3.74
220.418	-7.24
220.889	2.36
221.36	0.26
221.832	-5.34
222.303	-6.54
222.774	-1.04
223.245	-6.04
223.717	-8.34
224.188	-0.44
224.659	-6.84
225.13	-2.14
225.601	-1.04
226.072	2.56
226.543	-0.64
227.014	-5.14
227.485	-5.04
227.956	-7.64
228.427	-3.04
228.898	0.76
229.369	2.66
229.839	-0.84
230.31	-0.44
230.781	4.86
231.252	-5.14
231.722	-3.04
232.193	1.66
232.664	3.86
233.135	1.36
233.605	-6.54
234.076	0.26
234.546	6.26
235.017	6.26
235.487	1.36
235.958	-0.94
236.428	-5.14
236.899	4.46
237.369	0.96
237.84	1.86
238.31	7.26
238.78	0.96
239.251	1.16
239.721	2.06
240.191	3.96
240.662	2.86
241.132	2.46
241.602	-2.84
242.072	7.76
242.542	8.26
243.013	-0.14
243.483	6.66
243.953	1.36
244.423	2.46
244.893	-2.44
245.363	8.46
245.833	-0.24
246.303	2.36
246.773	8.86
247.243	-0.14
247.712	7.96
248.182	5.36
248.652	4.16
249.122	0.66
249.592	16.46
250.061	23.26
250.531	35.96
251.001	20.16
251.471	22.76
251.94	16.06
252.41	8.86
252.879	4.66
253.349	9.86
253.818	13.76
254.288	1.36
254.757	7.66
255.227	3.86
255.696	9.96
256.166	6.06
256.635	14.36
257.105	11.06
257.574	9.06
258.043	9.66
258.513	7.86
258.982	22.26
259.451	8.36
259.92	16.76
260.389	15.06
260.859	19.56
261.328	8.46
261.797	11.96
262.266	13.76
262.735	10.86
263.204	15.46
263.673	2.16
264.142	5.06
264.611	-5.44
265.08	5.26
265.549	-1.54
266.018	3.06
266.487	-1.84
266.955	-0.94
267.424	-0.44
267.893	6.96
268.362	4.16
268.83	5.96
269.299	9.06
269.768	4.66
270.236	9.16
270.705	5.46
271.174	7.06
271.642	3.96
272.111	6.16
272.579	20.46
273.048	25.16
273.516	29.86
273.985	28.96
274.453	20.66
274.922	21.26
275.39	5.66
275.858	6.46
276.327	13.66
276.795	19.46
277.263	15.96
277.731	31.86
278.2	54.56
278.668	53.76
279.136	47.16
279.604	21.86
280.072	18.56
280.54	11.16
281.008	14.16
281.477	10.86
281.945	7.96
282.413	12.16
282.881	17.36
283.348	4.86
283.816	14.86
284.284	14.46
284.752	18.16
285.22	6.46
285.688	13.26
286.156	22.26
286.623	43.76
287.091	49.96
287.559	28.06
288.026	18.56
288.494	17.56
288.962	5.26
289.429	9.36
289.897	15.86
290.364	14.26
290.832	13.16
291.3	11.56
291.767	17.76
292.234	19.56
292.702	8.46
293.169	14.16
293.637	18.76
294.104	18.26
294.571	8.96
295.039	7.96
295.506	8.46
295.973	18.66
296.44	11.26
296.908	15.26
297.375	17.26
297.842	22.96
298.309	16.46
298.776	20.06
299.243	24.56
299.71	16.36
300.177	25.26
300.644	19.56
301.111	17.16
301.578	27.86
302.045	17.36
302.512	18.36
302.979	26.96
303.446	22.56
303.913	24.46
304.379	13.36
304.846	26.26
305.313	21.86
305.78	12.36
306.246	25.26
306.713	24.76
307.18	25.96
307.646	25.16
308.113	32.36
308.579	24.16
309.046	25.46
309.512	26.26
309.979	19.76
310.445	26.96
310.912	22.76
311.378	29.46
311.845	29.66
312.311	24.16
312.777	21.26
313.244	25.66
313.71	30.66
314.176	28.46
314.642	28.36
315.109	23.36
315.575	28.36
316.041	36.26
316.507	26.06
316.973	37.36
317.439	28.46
317.905	33.16
318.371	36.96
318.837	30.36
319.303	30.76
319.769	26.66
320.235	22.96
320.701	34.06
321.167	32.06
321.633	31.26
322.099	32.36
322.564	37.06
323.03	37.06
323.496	35.86
323.962	42.06
324.427	34.66
324.893	38.26
325.359	37.56
325.824	38.76
326.29	35.06
326.755	39.46
327.221	39.36
327.686	38.86
328.152	40.96
328.617	37.76
329.083	47.96
329.548	48.16
330.014	42.06
330.479	38.26
330.944	39.66
331.41	36.56
331.875	44.66
332.34	42.06
332.805	44.36
333.271	42.16
333.736	37.56
334.201	55.06
334.666	41.16
335.131	46.06
335.596	48.86
336.061	39.76
336.526	40.06
336.991	42.86
337.456	51.36
337.921	47.26
338.386	41.36
338.851	41.86
339.316	40.66
339.781	46.76
340.246	52.66
340.711	40.66
341.175	46.16
341.64	42.16
342.105	48.86
342.569	58.56
343.034	50.46
343.499	54.26
343.963	45.46
344.428	56.86
344.893	54.26
345.357	51.36
345.822	57.06
346.286	56.26
346.751	62.16
347.215	62.06
347.679	63.86
348.144	80.96
348.608	72.46
349.073	65.26
349.537	67.96
350.001	70.36
350.465	75.46
350.93	75.56
351.394	73.96
351.858	64.26
352.322	78.16
352.786	70.86
353.25	87.76
353.715	99.76
354.179	82.46
354.643	102.16
355.107	109.46
355.571	91.66
356.035	93.26
356.498	102.96
356.962	108.96
357.426	109.66
357.89	99.76
358.354	83.56
358.818	77.56
359.281	68.26
359.745	70.06
360.209	67.96
360.673	67.16
361.136	71.26
361.6	77.76
362.064	74.86
362.527	76.56
362.991	78.96
363.454	72.76
363.918	68.06
364.381	79.26
364.845	73.36
365.308	71.36
365.772	77.16
366.235	73.86
366.698	73.76
367.162	76.06
367.625	76.66
368.088	80.06
368.552	78.56
369.015	78.66
369.478	85.26
369.941	84.86
370.404	81.26
370.867	95.46
371.331	92.76
371.794	100.86
372.257	93.06
372.72	99.06
373.183	99.66
373.646	95.36
374.109	94.86
374.572	93.76
375.035	96.16
375.497	96.66
375.96	88.06
376.423	96.66
376.886	97.26
377.349	94.56
377.811	90.76
378.274	94.26
378.737	89.56
379.199	97.46
379.662	96.76
380.125	102.76
380.587	107.06
381.05	109.86
381.512	111.96
381.975	119.66
382.437	117.16
382.9	110.26
383.362	115.56
383.825	125.56
384.287	126.16
384.75	122.66
385.212	130.36
385.674	124.66
386.136	115.06
386.599	117.56
387.061	117.06
387.523	115.66
387.985	114.76
388.447	123.76
388.91	120.06
389.372	144.36
389.834	136.16
390.296	130.46
390.758	132.56
391.22	159.06
391.682	182.36
392.144	265.36
392.606	210.36
393.068	146.76
393.529	142.96
393.991	129.16
394.453	130.96
394.915	134.06
395.377	167.66
395.838	185.76
396.3	142.86
396.762	132.96
397.224	114.36
397.685	117.96
398.147	116.26
398.608	114.36
399.07	109.66
399.531	118.86
399.993	123.06
400.454	136.46
400.916	130.66
401.377	129.96
401.839	137.66
402.3	132.16
402.762	154.86
403.223	155.06
403.684	155.66
404.145	140.66
404.607	141.16
405.068	145.46
405.529	146.86
405.99	152.36
406.451	149.86
406.913	151.16
407.374	138.66
407.835	144.16
408.296	150.66
408.757	147.26
409.218	159.66
409.679	159.86
410.14	161.06
410.601	160.76
411.062	166.16
411.522	172.36
411.983	170.66
412.444	157.56
412.905	159.36
413.366	162.16
413.826	166.56
414.287	190.26
414.748	234.46
415.208	222.16
415.669	190.56
416.13	179.46
416.59	184.06
417.051	190.16
417.511	194.56
417.972	209.86
418.432	220.06
418.893	262.56
419.353	225.96
419.814	175.66
420.274	163.86
420.734	157.76
421.195	174.36
421.655	167.16
422.115	172.96
422.576	167.56
423.036	173.16
423.496	181.26
423.956	186.66
424.416	203.56
424.876	235.76
425.336	232.36
425.797	233.06
426.257	219.16
426.717	208.86
427.177	209.06
427.637	191.76
428.097	204.16
428.556	219.36
429.016	234.76
429.476	232.16
429.936	243.06
430.396	239.66
430.856	245.56
431.315	272.36
431.775	300.86
432.235	336.36
432.694	308.56
433.154	306.46
433.614	333.06
434.073	292.16
434.533	248.36
434.993	235.16
435.452	247.96
435.912	251.96
436.371	249.76
436.83	244.76
437.29	235.26
437.749	214.56
438.209	207.86
438.668	236.26
439.127	246.16
439.587	228.96
440.046	218.36
440.505	218.56
440.964	235.26
441.424	271.46
441.883	269.66
442.342	221.86
442.801	197.96
443.26	197.96
443.719	187.16
444.178	189.66
444.637	182.26
445.096	195.06
445.555	198.66
446.014	195.46
446.473	201.96
446.932	204.66
447.391	196.76
447.849	201.36
448.308	195.66
448.767	194.06
449.226	210.36
449.685	200.66
450.143	221.26
450.602	209.46
451.061	200.26
451.519	202.16
451.978	204.46
452.436	207.66
452.895	213.36
453.353	218.46
453.812	210.36
454.27	211.96
454.729	213.76
455.187	206.56
455.646	216.36
456.104	216.86
456.562	228.56
457.021	225.26
457.479	223.66
457.937	228.86
458.395	232.76
458.854	217.16
459.312	222.86
459.77	230.66
460.228	222.46
460.686	215.16
461.144	224.66
461.602	216.96
462.06	213.66
462.518	218.26
462.976	226.76
463.434	229.86
463.892	230.46
464.35	239.96
464.808	253.06
465.266	233.06
465.724	241.36
466.181	239.06
466.639	240.76
467.097	257.26
467.555	261.16
468.012	268.06
468.47	274.46
468.928	288.96
469.385	295.16
469.843	307.26
470.3	307.46
470.758	308.36
471.215	320.96
471.673	353.76
472.13	349.46
472.588	358.56
473.045	325.16
473.503	329.36
473.96	344.06
474.417	349.16
474.875	381.66
475.332	416.46
475.789	403.56
476.246	412.16
476.704	428.76
477.161	439.16
477.618	452.36
478.075	488.16
478.532	533.96
478.989	599.26
479.446	692.86
479.903	676.26
480.36	715.76
480.817	767.76
481.274	860.16
481.731	960.06
482.188	1035.86
482.645	1159.86
483.102	1262.16
483.558	1381.16
484.015	1431.36
484.472	1422.26
484.929	1379.16
485.385	1325.46
485.842	1281.36
486.299	1221.76
486.755	1149.56
487.212	975.06
487.668	830.86
488.125	765.26
488.582	700.76
489.038	670.36
489.494	640.66
489.951	616.46
490.407	588.36
490.864	570.96
491.32	561.86
491.776	568.16
492.233	567.76
492.689	532.46
493.145	538.06
493.602	529.96
494.058	539.96
494.514	542.76
494.97	555.56
495.426	558.66
495.882	551.16
496.338	543.96
496.794	552.96
497.251	542.76
497.707	559.86
498.163	560.06
498.618	567.36
499.074	570.36
499.53	590.86
499.986	597.66
500.442	574.66
500.898	557.96
501.354	553.56
501.809	555.66
502.265	565.56
502.721	579.56
503.177	601.36
503.632	586.96
504.088	595.16
504.543	628.36
504.999	623.06
505.455	584.46
505.91	555.76
506.366	563.56
506.821	547.86
507.277	552.46
507.732	555.36
508.187	551.06
508.643	564.16
509.098	559.66
509.553	585.66
510.009	585.96
510.464	583.16
510.919	610.76
511.375	610.96
511.83	614.96
512.285	630.86
512.74	659.46
513.195	690.06
513.65	676.26
514.105	684.46
514.56	682.36
515.015	700.46
515.47	716.56
515.925	700.76
516.38	708.16
516.835	700.86
517.29	690.76
517.745	692.06
518.2	678.66
518.655	661.26
519.109	657.76
519.564	652.96
520.019	645.96
520.474	643.86
520.928	632.46
521.383	629.26
521.838	632.26
522.292	633.16
522.747	622.96
523.201	622.56
523.656	610.16
524.11	607.66
524.565	601.86
525.019	603.06
525.474	620.16
525.928	613.26
526.382	614.56
526.837	612.36
527.291	608.06
527.745	614.36
528.2	618.66
528.654	607.76
529.108	602.96
529.562	602.76
530.016	597.36
530.47	605.86
530.925	605.66
531.379	617.16
531.833	617.66
532.287	620.26
532.741	608.06
533.195	611.56
533.649	635.06
534.103	633.56
534.556	618.76
535.01	621.26
535.464	623.16
535.918	632.56
536.372	631.06
536.826	626.06
537.279	619.06
537.733	627.16
538.187	622.46
538.64	620.86
539.094	635.56
539.548	629.66
540.001	627.56
540.455	616.86
540.908	628.26
541.362	642.06
541.815	656.86
542.269	660.36
542.722	657.66
543.175	669.46
543.629	674.86
544.082	678.76
544.536	687.46
544.989	677.96
545.442	694.96
545.895	676.76
546.349	679.46
546.802	685.46
547.255	696.36
547.708	694.36
548.161	711.76
548.614	707.76
549.067	719.16
549.52	706.96
549.973	701.06
550.426	709.96
550.879	678.96
551.332	686.96
551.785	696.36
552.238	694.16
552.691	709.16
553.144	723.06
553.596	729.26
554.049	737.66
554.502	772.46
554.955	790.96
555.407	790.76
555.86	784.26
556.313	770.36
556.765	753.66
557.218	766.56
557.67	759.16
558.123	752.26
558.576	751.06
559.028	758.66
559.48	751.26
559.933	756.36
560.385	720.66
560.838	697.56
561.29	680.66
561.742	669.36
562.195	656.86
562.647	650.76
563.099	668.36
563.551	651.26
564.004	672.36
564.456	663.66
564.908	654.46
565.36	635.56
565.812	629.06
566.264	622.86
566.716	624.06
567.168	606.96
567.62	623.06
568.072	601.76
568.524	595.56
568.976	591.36
569.428	576.26
569.88	578.66
570.332	579.76
570.784	582.86
571.235	581.96
571.687	591.66
572.139	592.16
572.59	605.46
573.042	605.66
573.494	600.16
573.945	601.96
574.397	588.56
574.849	592.56
575.3	582.66
575.752	583.96
576.203	581.06
576.655	581.36
577.106	567.46
577.557	559.16
578.009	563.56
578.46	559.66
578.912	564.96
579.363	563.86
579.814	562.16
580.265	560.26
580.717	566.96
581.168	564.76
581.619	578.66
582.07	579.46
582.521	563.76
582.972	559.16
583.423	571.66
583.875	577.96
584.326	592.16
584.777	619.16
585.227	697.36
585.678	780.76
586.129	871.06
586.58	927.16
587.031	1003.86
587.482	1162.06
587.933	1334.76
588.384	1148.26
588.834	837.66
589.285	685.36
589.736	649.26
590.186	647.36
590.637	649.96
591.088	619.66
591.538	610.76
591.989	605.66
592.439	616.26
592.89	597.76
593.34	604.66
593.791	593.76
594.241	588.86
594.692	586.16
595.142	586.76
595.593	584.36
596.043	585.76
596.493	590.96
596.943	594.66
597.394	603.76
597.844	599.66
598.294	605.86
598.744	628.76
599.195	647.46
599.645	679.86
600.095	699.86
600.545	752.26
600.995	802.66
601.445	863.16
601.895	914.66
602.345	956.56
602.795	930.46
603.245	894.26
603.695	845.56
604.145	797.86
604.594	761.06
605.044	714.36
605.494	667.66
605.944	625.66
606.393	619.46
606.843	599.46
607.293	600.56
607.743	602.86
608.192	612.56
608.642	628.36
609.091	626.76
609.541	644.66
609.99	640.56
610.44	625.46
610.889	591.76
611.339	574.66
611.788	568.06
612.238	580.26
612.687	599.96
613.136	595.26
613.586	606.86
614.035	617.76
614.484	630.46
614.933	627.06
615.383	623.36
615.832	605.66
616.281	593.26
616.73	562.56
617.179	541.16
617.628	534.56
618.077	508.66
618.526	508.06
618.975	503.26
619.424	507.46
619.873	498.46
620.322	497.56
620.771	493.56
621.22	501.36
621.669	484.16
622.118	481.86
622.567	468.26
623.015	468.26
623.464	465.56
623.913	450.46
624.361	449.56
624.81	456.66
625.259	445.76
625.707	454.06
626.156	458.36
626.604	459.06
627.053	464.16
627.501	461.06
627.95	465.76
628.398	478.36
628.847	465.76
629.295	462.86
629.744	463.66
630.192	461.06
630.64	467.26
631.089	461.36
631.537	470.06
631.985	473.86
632.433	487.86
632.881	488.96
633.33	527.16
633.778	513.76
634.226	463.76
634.674	467.16
635.122	465.86
635.57	478.46
636.018	507.36
636.466	467.66
636.914	454.46
637.362	467.96
637.81	467.66
638.258	473.06
638.705	461.96
639.153	491.76
639.601	493.46
640.049	519.06
640.497	539.86
640.944	567.76
641.392	518.16
641.84	494.16
642.287	478.06
642.735	464.56
643.182	466.06
643.63	465.36
644.078	471.36
644.525	470.56
644.973	481.46
645.42	481.26
645.867	501.56
646.315	514.56
646.762	534.96
647.21	553.96
647.657	583.86
648.104	605.56
648.551	632.26
648.999	677.16
649.446	736.96
649.893	805.66
650.34	931.66
650.787	1101.36
651.234	1371.96
651.682	1771.46
652.129	2445.06
652.576	3508.46
653.023	5222.26
653.47	7234.56
653.917	9173.06
654.363	10769.46
654.81	12193.06
655.257	11559.76
655.704	7449.86
656.151	4341.06
656.598	2805.06
657.044	1978.76
657.491	1520.46
657.938	1209.06
658.385	1015.56
658.831	878.96
659.278	776.76
659.724	688.86
660.171	638.06
660.618	583.76
661.064	544.06
661.511	525.96
661.957	515.16
662.404	500.36
662.85	521.86
663.296	490.66
663.743	444.56
664.189	431.86
664.635	432.26
665.082	415.56
665.528	421.66
665.974	412.96
666.42	409.86
666.867	409.16
667.313	388.46
667.759	383.66
668.205	383.56
668.651	388.76
669.097	386.56
669.543	408.46
669.989	382.56
670.435	361.46
670.881	356.06
671.327	358.56
671.773	374.16
672.219	389.86
672.665	431.36
673.11	462.66
673.556	496.66
674.002	533.76
674.448	518.66
674.893	440.16
675.339	383.46
675.785	353.26
676.23	333.26
676.676	315.06
677.122	303.36
677.567	299.56
678.013	292.16
678.458	278.06
678.904	283.16
679.349	270.86
679.794	280.76
680.24	281.36
680.685	269.86
681.131	271.26
681.576	280.56
682.021	284.96
682.466	279.16
682.912	276.06
683.357	272.46
683.802	298.66
684.247	321.56
684.692	357.46
685.137	391.96
685.583	424.56
686.028	453.26
686.473	410.66
686.918	349.96
687.363	323.96
687.807	313.96
688.252	284.36
688.697	288.26
689.142	259.16
689.587	260.46
690.032	260.66
690.477	261.96
690.921	275.46
691.366	296.06
691.811	314.66
692.255	339.76
692.7	358.26
693.145	387.36
693.589	525.26
694.034	864.86
694.478	1205.56
694.923	1392.26
695.367	1851.66
695.812	962.16
696.256	392.76
696.701	289.26
697.145	272.46
697.59	261.36
698.034	249.56
698.478	262.06
698.922	254.06
699.367	258.56
699.811	266.36
700.255	282.46
700.699	297.36
701.143	321.76
701.588	369.56
702.032	413.96
702.476	409.56
702.92	387.06
703.364	379.66
703.808	495.36
704.252	798.26
704.696	1139.46
705.14	1350.86
705.584	1745.06
706.027	848.56
706.471	413.56
706.915	306.46
707.359	277.96
707.803	244.56
708.246	237.36
708.69	246.76
709.134	244.36
709.577	243.56
710.021	247.76
710.465	232.36
710.908	237.66
711.352	228.56
711.795	247.06
712.239	268.66
712.682	295.96
713.126	326.06
713.569	377.26
714.012	301.76
714.456	258.36
714.899	239.86
715.342	214.66
715.786	205.86
716.229	201.56
716.672	199.76
717.115	194.46
717.558	192.16
718.002	195.76
718.445	203.56
718.888	216.76
719.331	231.96
719.774	247.26
720.217	247.86
720.66	223.36
721.103	205.66
721.546	194.96
721.989	197.36
722.432	182.06
722.874	190.66
723.317	185.66
723.76	181.46
724.203	197.86
724.645	245.26
725.088	342.76
725.531	450.86
725.974	523.06
726.416	440.56
726.859	242.46
727.301	188.76
727.744	184.46
728.187	180.66
728.629	186.86
729.071	190.56
729.514	207.16
729.956	213.36
730.399	223.66
730.841	219.46
731.283	198.96
731.726	205.56
732.168	202.56
732.61	206.86
733.053	219.86
733.495	239.86
733.937	268.86
734.379	303.96
734.821	327.06
735.263	410.96
735.705	627.86
736.148	1187.46
736.59	2004.26
737.032	2484.66
737.474	2032.46
737.916	644.56
738.357	342.96
738.799	255.86
739.241	233.56
739.683	217.36
740.125	231.76
740.567	230.26
741.008	246.26
741.45	242.46
741.892	243.16
742.334	274.26
742.775	285.06
743.217	270.06
743.658	206.26
744.1	198.26
744.542	203.16
744.983	241.56
745.425	271.86
745.866	274.36
746.307	223.26
746.749	220.56
747.19	253.66
747.632	348.16
748.073	656.66
748.514	1420.46
748.956	2263.66
749.397	2827.76
749.838	2345.76
750.279	2432.66
750.72	1209.06
751.162	434.36
751.603	251.06
752.044	191.26
752.485	170.76
752.926	160.56
753.367	157.06
753.808	155.06
754.249	147.56
754.69	141.66
755.131	140.56
755.572	137.46
756.013	138.16
756.453	139.46
756.894	143.96
757.335	146.96
757.776	147.66
758.216	150.86
758.657	156.06
759.098	154.26
759.538	178.46
759.979	207.26
760.42	285.96
760.86	527.56
761.301	1362.16
761.741	3419.16
762.182	5320.56
762.622	3745.56
763.063	1049.66
763.503	425.36
763.943	271.36
