Data from 20171114-ORNL-Ar_H_NY_Subt18_08-04-19-260.txt Node
Date: Tue Nov 14 08:04:19 EST 2017
User: Ender
Spectrometer: HR+D1039
Trigger mode: 0
Integration Time (sec): 2.730000E-2
Scans to average: 10
Electric dark correction enabled: true
Nonlinearity correction enabled: false
Boxcar width: 0
XAxis mode: Wavelengths
Number of Pixels in Spectrum: 2048
>>>>>Begin Spectral Data<<<<<
187.836	-4.76
188.309	-4.76
188.782	-4.76
189.255	1.24
189.728	-0.96
190.201	0.44
190.674	0.34
191.147	2.34
191.619	-4.86
192.092	1.04
192.565	0.14
193.038	2.54
193.511	-1.66
193.984	-1.06
194.456	0.24
194.929	1.94
195.402	1.84
195.874	1.24
196.347	-1.46
196.82	-3.46
197.292	4.94
197.765	-0.36
198.237	-11.76
198.71	2.84
199.182	-4.06
199.655	0.24
200.127	-1.76
200.6	-3.16
201.072	-7.36
201.544	-4.36
202.017	-3.26
202.489	11.44
202.961	2.14
203.433	-3.36
203.906	-1.76
204.378	-5.66
204.85	0.84
205.322	-8.96
205.794	1.44
206.266	-0.66
206.739	-8.76
207.211	2.94
207.683	-14.76
208.155	-5.26
208.627	-4.96
209.099	-3.96
209.57	-6.76
210.042	-0.16
210.514	-7.56
210.986	-0.06
211.458	-7.96
211.93	0.64
212.402	4.34
212.873	-9.46
213.345	-7.96
213.817	-9.76
214.288	0.84
214.76	-6.06
215.232	-0.56
215.703	-3.16
216.175	-4.86
216.646	-2.56
217.118	-2.96
217.589	0.94
218.061	-10.36
218.532	-2.56
219.004	-4.36
219.475	-1.46
219.946	-3.26
220.418	-7.46
220.889	0.34
221.36	-2.26
221.832	-5.96
222.303	-4.76
222.774	1.74
223.245	-14.16
223.717	-6.56
224.188	-8.56
224.659	-4.66
225.13	2.54
225.601	-0.46
226.072	5.54
226.543	2.24
227.014	-4.56
227.485	5.34
227.956	-5.06
228.427	1.44
228.898	-0.26
229.369	4.34
229.839	-2.06
230.31	-2.36
230.781	5.04
231.252	-3.56
231.722	-4.86
232.193	-3.36
232.664	-3.26
233.135	1.04
233.605	-2.36
234.076	-2.86
234.546	3.74
235.017	6.14
235.487	3.24
235.958	-0.96
236.428	-2.66
236.899	4.44
237.369	6.64
237.84	1.34
238.31	1.94
238.78	4.74
239.251	5.94
239.721	4.44
240.191	2.64
240.662	-1.06
241.132	1.04
241.602	-1.26
242.072	-2.06
242.542	7.44
243.013	0.74
243.483	6.84
243.953	-3.66
244.423	-0.56
244.893	1.04
245.363	1.14
245.833	0.34
246.303	-0.46
246.773	10.74
247.243	4.84
247.712	4.54
248.182	11.04
248.652	6.84
249.122	1.34
249.592	14.34
250.061	23.74
250.531	34.64
251.001	15.14
251.471	24.04
251.94	24.04
252.41	4.74
252.879	2.84
253.349	14.34
253.818	10.84
254.288	8.34
254.757	2.64
255.227	4.94
255.696	9.04
256.166	5.44
256.635	7.44
257.105	9.84
257.574	13.54
258.043	13.54
258.513	13.24
258.982	15.34
259.451	15.54
259.92	18.84
260.389	9.74
260.859	18.14
261.328	11.04
261.797	20.24
262.266	10.94
262.735	9.24
263.204	5.14
263.673	1.94
264.142	10.64
264.611	4.74
265.08	3.44
265.549	0.04
266.018	6.64
266.487	-3.86
266.955	-3.96
267.424	0.24
267.893	2.24
268.362	7.94
268.83	7.84
269.299	11.84
269.768	8.44
270.236	11.04
270.705	2.54
271.174	5.34
271.642	10.94
272.111	7.94
272.579	14.84
273.048	18.74
273.516	26.84
273.985	27.64
274.453	28.74
274.922	16.84
275.39	14.74
275.858	6.84
276.327	12.54
276.795	19.54
277.263	10.84
277.731	33.94
278.2	56.44
278.668	55.84
279.136	43.64
279.604	17.64
280.072	9.14
280.54	13.14
281.008	7.84
281.477	14.24
281.945	14.64
282.413	11.64
282.881	12.94
283.348	10.14
283.816	17.94
284.284	16.14
284.752	16.84
285.22	12.54
285.688	14.34
286.156	20.74
286.623	36.54
287.091	52.44
287.559	24.24
288.026	20.04
288.494	16.24
288.962	8.24
289.429	4.84
289.897	17.44
290.364	14.64
290.832	18.34
291.3	19.44
291.767	24.24
292.234	19.34
292.702	21.34
293.169	19.24
293.637	23.64
294.104	17.44
294.571	16.14
295.039	6.14
295.506	16.94
295.973	18.54
296.44	16.24
296.908	19.54
297.375	15.24
297.842	16.54
298.309	23.54
298.776	15.94
299.243	20.34
299.71	16.44
300.177	20.44
300.644	24.04
301.111	19.44
301.578	28.54
302.045	15.94
302.512	19.14
302.979	22.54
303.446	22.34
303.913	19.64
304.379	15.44
304.846	25.54
305.313	28.04
305.78	16.94
306.246	22.74
306.713	27.14
307.18	24.94
307.646	26.14
308.113	28.04
308.579	23.44
309.046	26.94
309.512	25.54
309.979	14.64
310.445	24.54
310.912	29.24
311.378	28.84
311.845	23.74
312.311	29.04
312.777	30.84
313.244	28.44
313.71	34.14
314.176	29.84
314.642	30.44
315.109	28.14
315.575	35.14
316.041	40.44
316.507	29.54
316.973	38.44
317.439	34.54
317.905	34.44
318.371	34.14
318.837	31.14
319.303	32.04
319.769	33.14
320.235	31.74
320.701	33.74
321.167	36.54
321.633	31.84
322.099	37.34
322.564	40.04
323.03	37.14
323.496	38.74
323.962	39.24
324.427	37.84
324.893	44.54
325.359	33.94
325.824	38.44
326.29	26.74
326.755	37.34
327.221	38.04
327.686	33.74
328.152	39.84
328.617	32.74
329.083	45.14
329.548	47.64
330.014	45.74
330.479	37.94
330.944	42.94
331.41	43.14
331.875	43.34
332.34	44.34
332.805	37.84
333.271	40.44
333.736	43.14
334.201	51.44
334.666	48.44
335.131	52.74
335.596	44.04
336.061	49.14
336.526	40.54
336.991	48.94
337.456	51.34
337.921	47.94
338.386	35.74
338.851	40.54
339.316	41.24
339.781	44.14
340.246	47.04
340.711	42.34
341.175	47.64
341.64	42.74
342.105	49.34
342.569	54.74
343.034	57.34
343.499	49.64
343.963	43.54
344.428	56.34
344.893	51.54
345.357	60.64
345.822	56.44
346.286	59.84
346.751	62.64
347.215	65.04
347.679	69.04
348.144	87.14
348.608	80.64
349.073	62.14
349.537	69.74
350.001	71.04
350.465	86.34
350.93	77.34
351.394	82.44
351.858	68.14
352.322	76.34
352.786	77.74
353.25	85.44
353.715	102.64
354.179	89.94
354.643	111.14
355.107	110.94
355.571	93.44
356.035	89.54
356.498	99.14
356.962	110.34
357.426	114.54
357.89	111.24
358.354	82.94
358.818	81.74
359.281	69.64
359.745	74.34
360.209	72.14
360.673	71.64
361.136	80.64
361.6	83.94
362.064	76.54
362.527	73.14
362.991	83.54
363.454	70.44
363.918	75.54
364.381	75.24
364.845	77.54
365.308	84.74
365.772	83.34
366.235	80.84
366.698	74.54
367.162	79.94
367.625	75.54
368.088	80.64
368.552	79.34
369.015	75.94
369.478	89.44
369.941	94.24
370.404	85.14
370.867	95.14
371.331	100.44
371.794	105.64
372.257	89.64
372.72	106.44
373.183	102.64
373.646	91.94
374.109	91.94
374.572	99.74
375.035	100.34
375.497	98.84
375.96	100.04
376.423	97.84
376.886	102.74
377.349	99.64
377.811	90.84
378.274	98.54
378.737	99.34
379.199	97.84
379.662	105.94
380.125	103.44
380.587	111.74
381.05	116.44
381.512	119.94
381.975	125.34
382.437	121.74
382.9	114.64
383.362	117.24
383.825	136.04
384.287	130.14
384.75	130.14
385.212	129.64
385.674	123.54
386.136	120.54
386.599	110.14
387.061	118.54
387.523	120.44
387.985	126.24
388.447	125.64
388.91	136.24
389.372	137.84
389.834	136.74
390.296	134.44
390.758	136.74
391.22	145.94
391.682	182.44
392.144	259.34
392.606	209.34
393.068	147.54
393.529	155.74
393.991	138.54
394.453	129.04
394.915	139.24
395.377	163.64
395.838	183.54
396.3	137.34
396.762	125.24
397.224	126.94
397.685	122.24
398.147	120.54
398.608	117.04
399.07	115.14
399.531	122.34
399.993	126.44
400.454	132.34
400.916	130.94
401.377	136.24
401.839	140.94
402.3	138.64
402.762	152.94
403.223	162.24
403.684	155.04
404.145	151.04
404.607	141.74
405.068	141.64
405.529	159.34
405.99	166.84
406.451	156.44
406.913	154.24
407.374	151.14
407.835	146.84
408.296	147.24
408.757	156.64
409.218	169.44
409.679	158.24
410.14	154.64
410.601	164.04
411.062	164.24
411.522	174.24
411.983	167.24
412.444	155.74
412.905	162.44
413.366	162.94
413.826	169.74
414.287	194.74
414.748	243.04
415.208	221.84
415.669	187.44
416.13	185.44
416.59	181.44
417.051	199.44
417.511	200.24
417.972	225.24
418.432	223.64
418.893	263.14
419.353	229.74
419.814	180.84
420.274	167.44
420.734	160.44
421.195	181.34
421.655	176.94
422.115	175.74
422.576	169.44
423.036	178.14
423.496	183.84
423.956	196.54
424.416	207.24
424.876	241.34
425.336	238.44
425.797	242.04
426.257	228.74
426.717	206.84
427.177	208.64
427.637	202.44
428.097	215.14
428.556	225.14
429.016	242.24
429.476	236.14
429.936	246.44
430.396	247.84
430.856	258.24
431.315	290.24
431.775	305.54
432.235	335.24
432.694	309.94
433.154	319.54
433.614	340.74
434.073	294.24
434.533	263.94
434.993	237.04
435.452	251.24
435.912	261.04
436.371	258.04
436.83	248.94
437.29	241.74
437.749	219.74
438.209	217.84
438.668	235.94
439.127	251.14
439.587	233.34
440.046	220.24
440.505	228.84
440.964	244.34
441.424	279.84
441.883	273.64
442.342	225.34
442.801	203.04
443.26	197.74
443.719	190.54
444.178	194.24
444.637	192.44
445.096	199.34
445.555	200.34
446.014	201.04
446.473	208.04
446.932	209.84
447.391	200.54
447.849	204.74
448.308	194.04
448.767	202.34
449.226	209.64
449.685	215.74
450.143	225.04
450.602	219.84
451.061	201.34
451.519	212.04
451.978	203.24
452.436	210.34
452.895	213.14
453.353	217.94
453.812	218.34
454.27	210.24
454.729	216.64
455.187	219.74
455.646	217.24
456.104	219.44
456.562	232.54
457.021	235.24
457.479	223.44
457.937	236.44
458.395	234.34
458.854	215.44
459.312	226.84
459.77	238.74
460.228	225.14
460.686	214.94
461.144	222.54
461.602	224.44
462.06	214.64
462.518	225.14
462.976	234.94
463.434	234.34
463.892	229.44
464.35	247.44
464.808	254.04
465.266	242.84
465.724	244.54
466.181	252.14
466.639	252.64
467.097	257.74
467.555	270.94
468.012	270.84
468.47	279.44
468.928	296.64
469.385	304.54
469.843	304.34
470.3	309.04
470.758	325.24
471.215	345.74
471.673	356.74
472.13	349.34
472.588	365.14
473.045	324.84
473.503	343.74
473.96	350.84
474.417	362.74
474.875	385.64
475.332	426.64
475.789	408.64
476.246	413.14
476.704	432.54
477.161	461.34
477.618	469.74
478.075	500.14
478.532	547.34
478.989	618.34
479.446	707.94
479.903	692.04
480.36	725.84
480.817	773.54
481.274	868.44
481.731	961.14
482.188	1035.14
482.645	1171.14
483.102	1272.04
483.558	1396.14
484.015	1439.94
484.472	1426.84
484.929	1380.84
485.385	1350.14
485.842	1293.04
486.299	1236.34
486.755	1152.54
487.212	988.84
487.668	830.04
488.125	770.74
488.582	716.64
489.038	682.24
489.494	657.04
489.951	624.34
490.407	607.94
490.864	591.94
491.32	574.94
491.776	582.74
492.233	585.44
492.689	548.54
493.145	541.94
493.602	533.94
494.058	548.24
494.514	561.64
494.97	569.64
495.426	582.14
495.882	555.64
496.338	558.44
496.794	567.44
497.251	564.14
497.707	575.94
498.163	574.24
498.618	582.94
499.074	578.44
499.53	605.34
499.986	603.74
500.442	591.24
500.898	576.94
501.354	562.64
501.809	575.54
502.265	574.34
502.721	576.14
503.177	603.64
503.632	602.94
504.088	610.04
504.543	643.94
504.999	635.24
505.455	607.74
505.91	572.74
506.366	576.34
506.821	564.84
507.277	563.04
507.732	569.44
508.187	564.24
508.643	570.84
509.098	571.24
509.553	576.64
510.009	596.84
510.464	608.14
510.919	608.04
511.375	621.14
511.83	628.54
512.285	646.44
512.74	682.04
513.195	695.84
513.65	693.74
514.105	691.04
514.56	693.64
515.015	715.94
515.47	716.84
515.925	725.54
516.38	716.84
516.835	717.44
517.29	702.04
517.745	700.64
518.2	685.34
518.655	670.74
519.109	676.94
519.564	669.04
520.019	661.94
520.474	647.54
520.928	655.74
521.383	647.14
521.838	634.44
522.292	634.74
522.747	638.14
523.201	625.24
523.656	627.54
524.11	622.84
524.565	623.94
525.019	621.64
525.474	634.04
525.928	629.24
526.382	623.74
526.837	607.84
527.291	631.94
527.745	617.64
528.2	630.04
528.654	623.04
529.108	609.64
529.562	619.84
530.016	611.34
530.47	611.74
530.925	623.04
531.379	615.34
531.833	632.24
532.287	625.24
532.741	624.44
533.195	641.34
533.649	641.84
534.103	650.04
534.556	638.24
535.01	626.64
535.464	639.34
535.918	646.34
536.372	646.04
536.826	637.54
537.279	630.44
537.733	631.74
538.187	641.94
538.64	639.94
539.094	634.64
539.548	658.04
540.001	650.14
540.455	650.64
540.908	651.74
541.362	654.94
541.815	658.64
542.269	674.04
542.722	665.84
543.175	687.04
543.629	683.54
544.082	688.04
544.536	696.94
544.989	693.14
545.442	696.44
545.895	709.34
546.349	692.74
546.802	695.04
547.255	707.04
547.708	716.44
548.161	727.04
548.614	718.24
549.067	737.24
549.52	717.14
549.973	720.64
550.426	714.04
550.879	706.34
551.332	700.74
551.785	715.54
552.238	718.04
552.691	717.84
553.144	733.44
553.596	736.14
554.049	756.54
554.502	801.04
554.955	808.94
555.407	801.84
555.86	790.54
556.313	783.84
556.765	769.44
557.218	782.44
557.67	780.54
558.123	768.74
558.576	761.74
559.028	773.34
559.48	771.94
559.933	772.74
560.385	745.24
560.838	701.74
561.29	685.44
561.742	683.24
562.195	678.24
562.647	668.54
563.099	685.84
563.551	669.44
564.004	687.04
564.456	673.44
564.908	669.14
565.36	653.04
565.812	645.24
566.264	634.94
566.716	636.74
567.168	620.74
567.62	625.54
568.072	615.54
568.524	603.54
568.976	601.54
569.428	584.74
569.88	584.84
570.332	593.34
570.784	591.54
571.235	593.04
571.687	601.74
572.139	605.74
572.59	620.74
573.042	616.34
573.494	614.04
573.945	612.54
574.397	592.54
574.849	595.84
575.3	604.84
575.752	587.94
576.203	590.44
576.655	590.44
577.106	582.64
577.557	572.34
578.009	576.74
578.46	571.24
578.912	571.44
579.363	569.84
579.814	571.64
580.265	575.84
580.717	577.14
581.168	581.84
581.619	585.84
582.07	594.34
582.521	586.34
582.972	577.44
583.423	576.54
583.875	581.34
584.326	605.34
584.777	638.34
585.227	707.34
585.678	792.14
586.129	853.44
586.58	922.94
587.031	1000.14
587.482	1135.44
587.933	1290.84
588.384	1129.04
588.834	835.44
589.285	694.94
589.736	666.24
590.186	661.24
590.637	654.14
591.088	636.44
591.538	630.34
591.989	620.24
592.439	621.74
592.89	613.74
593.34	606.84
593.791	597.14
594.241	600.94
594.692	603.84
595.142	594.44
595.593	594.94
596.043	606.64
596.493	613.14
596.943	609.44
597.394	611.04
597.844	606.44
598.294	626.04
598.744	634.34
599.195	651.04
599.645	690.04
600.095	713.94
600.545	772.54
600.995	818.44
601.445	866.04
601.895	920.94
602.345	958.14
602.795	945.04
603.245	912.94
603.695	860.84
604.145	814.14
604.594	778.54
605.044	721.14
605.494	676.24
605.944	642.24
606.393	621.74
606.843	619.74
607.293	619.54
607.743	621.94
608.192	624.64
608.642	643.94
609.091	646.34
609.541	655.64
609.99	649.14
610.44	644.24
610.889	606.04
611.339	595.14
611.788	572.24
612.238	595.34
612.687	604.74
613.136	600.04
613.586	625.94
614.035	614.74
614.484	629.74
614.933	629.84
615.383	631.14
615.832	614.04
616.281	613.84
616.73	572.64
617.179	555.64
617.628	537.84
618.077	529.84
618.526	515.34
618.975	516.64
619.424	513.44
619.873	509.64
620.322	519.34
620.771	503.64
621.22	498.74
621.669	492.04
622.118	489.24
622.567	481.84
623.015	481.74
623.464	482.24
623.913	475.24
624.361	463.94
624.81	454.24
625.259	460.74
625.707	468.54
626.156	463.64
626.604	467.04
627.053	463.24
627.501	470.74
627.95	475.74
628.398	481.84
628.847	475.94
629.295	472.54
629.744	475.24
630.192	474.24
630.64	464.04
631.089	469.64
631.537	478.64
631.985	488.54
632.433	486.04
632.881	495.24
633.33	536.54
633.778	522.14
634.226	473.54
634.674	474.34
635.122	466.94
635.57	491.74
636.018	517.54
636.466	472.94
636.914	462.84
637.362	470.44
637.81	471.24
638.258	481.34
638.705	477.14
639.153	500.44
639.601	516.94
640.049	531.44
640.497	556.44
640.944	570.24
641.392	536.84
641.84	505.94
642.287	469.04
642.735	470.54
643.182	466.54
643.63	476.34
644.078	462.34
644.525	487.44
644.973	485.54
645.42	493.04
645.867	520.24
646.315	521.74
646.762	543.74
647.21	566.44
647.657	578.24
648.104	605.44
648.551	629.94
648.999	688.94
649.446	743.94
649.893	807.34
650.34	936.54
650.787	1113.34
651.234	1386.74
651.682	1797.44
652.129	2449.24
652.576	3506.44
653.023	5204.44
653.47	7232.04
653.917	9099.74
654.363	10699.24
654.81	12065.64
655.257	11470.24
655.704	7467.64
656.151	4358.34
656.598	2824.74
657.044	2005.64
657.491	1528.14
657.938	1219.44
658.385	1016.04
658.831	892.74
659.278	787.14
659.724	701.94
660.171	641.04
660.618	578.14
661.064	549.34
661.511	532.44
661.957	530.14
662.404	520.04
662.85	523.94
663.296	498.34
663.743	461.74
664.189	441.84
664.635	433.64
665.082	434.84
665.528	434.04
665.974	420.84
666.42	423.14
666.867	408.24
667.313	398.44
667.759	382.34
668.205	387.74
668.651	399.34
669.097	397.54
669.543	404.84
669.989	388.04
670.435	365.74
670.881	358.84
671.327	367.14
671.773	375.64
672.219	390.54
672.665	434.74
673.11	475.64
673.556	513.14
674.002	551.14
674.448	540.24
674.893	450.14
675.339	388.24
675.785	357.94
676.23	341.64
676.676	315.34
677.122	306.94
677.567	302.64
678.013	301.44
678.458	284.74
678.904	288.34
679.349	279.64
679.794	283.94
680.24	277.14
680.685	278.84
681.131	274.24
681.576	282.84
682.021	289.54
682.466	282.64
682.912	271.94
683.357	281.44
683.802	297.24
684.247	339.04
684.692	363.24
685.137	395.44
685.583	436.34
686.028	454.94
686.473	425.14
686.918	363.44
687.363	343.54
687.807	320.94
688.252	298.94
688.697	291.84
689.142	273.74
689.587	271.64
690.032	258.54
690.477	268.94
690.921	275.94
691.366	300.64
691.811	323.24
692.255	346.74
692.7	375.54
693.145	397.94
693.589	546.44
694.034	886.54
694.478	1222.24
694.923	1434.84
695.367	1904.74
695.812	989.74
696.256	403.54
696.701	302.54
697.145	282.34
697.59	266.74
698.034	250.34
698.478	272.84
698.922	257.54
699.367	259.64
699.811	267.84
700.255	293.74
700.699	310.34
701.143	338.54
701.588	382.84
702.032	411.84
702.476	421.44
702.92	401.54
703.364	386.84
703.808	487.94
704.252	802.54
704.696	1140.44
705.14	1375.54
705.584	1766.44
706.027	879.14
706.471	429.64
706.915	317.64
707.359	286.34
707.803	261.64
708.246	253.94
708.69	248.64
709.134	251.24
709.577	248.64
710.021	254.84
710.465	244.84
710.908	243.04
711.352	232.24
711.795	249.74
712.239	278.64
712.682	297.14
713.126	335.24
713.569	375.14
714.012	294.64
714.456	261.54
714.899	235.94
715.342	215.94
715.786	207.44
716.229	208.04
716.672	208.54
717.115	192.24
717.558	202.04
718.002	204.74
718.445	211.34
718.888	229.54
719.331	234.74
719.774	238.64
720.217	242.74
720.66	225.54
721.103	205.14
721.546	201.54
721.989	195.84
722.432	182.64
722.874	189.24
723.317	186.64
723.76	193.24
724.203	205.44
724.645	247.94
725.088	349.44
725.531	450.84
725.974	520.64
726.416	456.94
726.859	250.24
727.301	199.34
727.744	187.64
728.187	183.44
728.629	187.54
729.071	193.94
729.514	209.74
729.956	222.84
730.399	219.94
730.841	227.14
731.283	217.74
731.726	205.44
732.168	205.84
732.61	219.34
733.053	228.14
733.495	246.04
733.937	279.94
734.379	317.94
734.821	350.64
735.263	424.84
735.705	648.54
736.148	1211.04
736.59	2050.64
737.032	2537.14
737.474	2073.24
737.916	658.94
738.357	347.54
738.799	263.14
739.241	237.84
739.683	221.34
740.125	235.44
740.567	234.14
741.008	262.04
741.45	251.04
741.892	257.34
742.334	274.84
742.775	286.74
743.217	277.34
743.658	222.54
744.1	205.34
744.542	206.94
744.983	252.34
745.425	287.14
745.866	276.34
746.307	226.44
746.749	225.44
747.19	252.94
747.632	351.04
748.073	667.34
748.514	1444.44
748.956	2299.74
749.397	2883.54
749.838	2404.84
750.279	2453.34
750.72	1244.64
751.162	444.54
751.603	262.74
752.044	202.74
752.485	171.54
752.926	162.84
753.367	159.44
753.808	157.74
754.249	150.44
754.69	146.64
755.131	148.14
755.572	147.44
756.013	140.14
756.453	147.94
756.894	153.44
757.335	149.94
757.776	152.94
758.216	153.54
758.657	159.44
759.098	158.44
759.538	172.84
759.979	209.84
760.42	287.74
760.86	544.04
761.301	1404.24
761.741	3495.94
762.182	5434.54
762.622	3830.14
763.063	1074.34
763.503	430.64
