Data from 20171114-ORNL-Ar_H_NY_Subt18_08-03-47-594.txt Node
Date: Tue Nov 14 08:03:47 EST 2017
User: Ender
Spectrometer: HR+D1039
Trigger mode: 0
Integration Time (sec): 2.730000E-2
Scans to average: 10
Electric dark correction enabled: true
Nonlinearity correction enabled: false
Boxcar width: 0
XAxis mode: Wavelengths
Number of Pixels in Spectrum: 2048
>>>>>Begin Spectral Data<<<<<
187.836	-5.05
188.309	-5.05
188.782	-5.05
189.255	0.95
189.728	3.75
190.201	7.95
190.674	-1.85
191.147	1.15
191.619	-4.05
192.092	-0.65
192.565	5.15
193.038	0.15
193.511	-2.65
193.984	-1.35
194.456	-2.75
194.929	-0.65
195.402	-1.85
195.874	1.75
196.347	-0.65
196.82	0.55
197.292	6.45
197.765	-3.05
198.237	-7.55
198.71	-0.15
199.182	-3.75
199.655	4.95
200.127	-2.15
200.6	2.15
201.072	2.05
201.544	-5.25
202.017	-2.95
202.489	1.75
202.961	-3.25
203.433	-6.75
203.906	-3.85
204.378	-2.55
204.85	-3.75
205.322	-8.55
205.794	4.65
206.266	-4.95
206.739	-6.85
207.211	5.35
207.683	-4.85
208.155	-0.85
208.627	-7.75
209.099	-3.85
209.57	-6.85
210.042	-3.65
210.514	-0.85
210.986	1.35
211.458	-6.45
211.93	-0.25
212.402	9.45
212.873	0.65
213.345	-2.85
213.817	-13.75
214.288	-4.75
214.76	-11.65
215.232	-2.75
215.703	-8.35
216.175	3.95
216.646	-5.05
217.118	-10.35
217.589	-1.65
218.061	-1.25
218.532	-3.95
219.004	-0.95
219.475	0.25
219.946	-16.25
220.418	-8.15
220.889	0.45
221.36	-2.45
221.832	-1.55
222.303	-3.75
222.774	3.85
223.245	-13.35
223.717	-7.55
224.188	-2.95
224.659	-5.45
225.13	-4.75
225.601	-0.25
226.072	0.75
226.543	-1.35
227.014	7.35
227.485	1.05
227.956	-2.65
228.427	-5.65
228.898	4.05
229.369	1.15
229.839	-6.15
230.31	-6.45
230.781	0.25
231.252	-6.45
231.722	-2.05
232.193	-3.85
232.664	0.45
233.135	-1.25
233.605	-7.75
234.076	-9.25
234.546	-1.15
235.017	-1.75
235.487	-3.45
235.958	-3.05
236.428	-3.35
236.899	-4.85
237.369	3.05
237.84	1.05
238.31	3.05
238.78	-2.05
239.251	-8.65
239.721	-1.45
240.191	-5.55
240.662	-3.25
241.132	-0.45
241.602	-5.05
242.072	0.05
242.542	5.85
243.013	-1.05
243.483	-3.05
243.953	4.45
244.423	0.95
244.893	-9.35
245.363	-4.85
245.833	-2.45
246.303	-2.35
246.773	4.95
247.243	-1.15
247.712	-5.35
248.182	6.25
248.652	0.85
249.122	-8.85
249.592	2.35
250.061	-1.15
250.531	5.15
251.001	-0.25
251.471	6.75
251.94	1.25
252.41	-1.65
252.879	0.45
253.349	8.35
253.818	-0.05
254.288	4.95
254.757	0.65
255.227	-1.95
255.696	-3.55
256.166	4.45
256.635	1.95
257.105	8.55
257.574	-1.45
258.043	-1.35
258.513	-0.35
258.982	6.55
259.451	-5.55
259.92	-0.35
260.389	5.85
260.859	9.35
261.328	-2.05
261.797	5.15
262.266	-3.75
262.735	12.05
263.204	7.35
263.673	0.65
264.142	5.45
264.611	-2.65
265.08	1.05
265.549	-5.35
266.018	0.25
266.487	-2.85
266.955	-3.25
267.424	-2.55
267.893	5.85
268.362	-2.05
268.83	1.75
269.299	4.85
269.768	0.45
270.236	2.35
270.705	0.35
271.174	1.05
271.642	4.85
272.111	5.55
272.579	4.75
273.048	4.05
273.516	1.05
273.985	3.75
274.453	3.95
274.922	8.85
275.39	1.65
275.858	-4.25
276.327	9.35
276.795	11.65
277.263	5.35
277.731	14.55
278.2	8.65
278.668	3.75
279.136	5.05
279.604	4.45
280.072	12.65
280.54	8.25
281.008	5.15
281.477	15.25
281.945	5.35
282.413	4.15
282.881	11.75
283.348	5.85
283.816	8.95
284.284	11.35
284.752	16.45
285.22	3.35
285.688	14.05
286.156	11.65
286.623	11.35
287.091	5.35
287.559	14.05
288.026	6.95
288.494	10.55
288.962	-2.65
289.429	-0.85
289.897	11.35
290.364	5.15
290.832	13.35
291.3	4.55
291.767	9.05
292.234	10.35
292.702	6.95
293.169	15.15
293.637	15.65
294.104	12.55
294.571	3.65
295.039	4.65
295.506	9.65
295.973	8.65
296.44	9.05
296.908	3.85
297.375	9.15
297.842	11.45
298.309	14.05
298.776	9.55
299.243	13.55
299.71	15.15
300.177	17.35
300.644	16.15
301.111	10.15
301.578	10.85
302.045	13.95
302.512	15.75
302.979	17.35
303.446	17.95
303.913	15.25
304.379	18.55
304.846	16.85
305.313	18.65
305.78	17.35
306.246	14.55
306.713	14.75
307.18	22.45
307.646	20.85
308.113	15.45
308.579	17.35
309.046	18.65
309.512	24.85
309.979	10.65
310.445	17.65
310.912	22.05
311.378	25.25
311.845	14.15
312.311	22.85
312.777	22.75
313.244	19.45
313.71	31.25
314.176	22.15
314.642	14.25
315.109	18.95
315.575	30.05
316.041	32.25
316.507	20.45
316.973	26.35
317.439	28.75
317.905	26.95
318.371	31.45
318.837	29.35
319.303	23.35
319.769	27.55
320.235	28.45
320.701	27.65
321.167	25.55
321.633	24.55
322.099	29.05
322.564	31.35
323.03	29.85
323.496	28.35
323.962	27.45
324.427	29.55
324.893	27.95
325.359	32.75
325.824	26.45
326.29	32.65
326.755	29.75
327.221	30.95
327.686	36.05
328.152	43.55
328.617	38.65
329.083	35.85
329.548	44.75
330.014	44.35
330.479	31.05
330.944	33.65
331.41	37.75
331.875	43.15
332.34	35.55
332.805	31.35
333.271	39.25
333.736	33.35
334.201	44.35
334.666	45.25
335.131	49.15
335.596	40.05
336.061	43.05
336.526	34.75
336.991	39.55
337.456	44.65
337.921	39.45
338.386	43.55
338.851	48.15
339.316	47.55
339.781	42.25
340.246	45.55
340.711	36.65
341.175	44.65
341.64	44.75
342.105	48.15
342.569	51.65
343.034	58.05
343.499	54.65
343.963	51.15
344.428	57.45
344.893	50.05
345.357	56.65
345.822	53.75
346.286	58.55
346.751	60.95
347.215	59.55
347.679	62.75
348.144	77.25
348.608	76.15
349.073	63.65
349.537	63.05
350.001	75.95
350.465	78.05
350.93	67.05
351.394	70.45
351.858	63.65
352.322	78.65
352.786	72.15
353.25	88.65
353.715	99.85
354.179	82.45
354.643	95.05
355.107	103.55
355.571	83.95
356.035	89.45
356.498	97.05
356.962	95.15
357.426	103.05
357.89	93.05
358.354	88.75
358.818	79.15
359.281	74.55
359.745	70.95
360.209	72.05
360.673	78.95
361.136	77.55
361.6	83.45
362.064	76.95
362.527	81.75
362.991	81.95
363.454	77.65
363.918	68.95
364.381	76.95
364.845	80.55
365.308	82.75
365.772	88.45
366.235	83.15
366.698	83.55
367.162	83.95
367.625	79.85
368.088	82.55
368.552	88.85
369.015	80.15
369.478	89.15
369.941	96.35
370.404	90.45
370.867	94.75
371.331	99.95
371.794	102.35
372.257	94.95
372.72	103.05
373.183	100.65
373.646	92.85
374.109	96.45
374.572	101.85
375.035	95.25
375.497	100.35
375.96	101.35
376.423	99.75
376.886	111.25
377.349	109.15
377.811	106.95
378.274	104.15
378.737	102.15
379.199	110.85
379.662	109.45
380.125	108.35
380.587	110.55
381.05	107.75
381.512	119.65
381.975	123.15
382.437	124.05
382.9	119.85
383.362	123.85
383.825	132.45
384.287	129.45
384.75	122.85
385.212	124.35
385.674	131.25
386.136	128.35
386.599	119.55
387.061	127.85
387.523	125.45
387.985	126.45
388.447	135.05
388.91	129.75
389.372	134.15
389.834	130.15
390.296	129.95
390.758	132.85
391.22	136.45
391.682	145.45
392.144	148.65
392.606	149.85
393.068	141.95
393.529	155.05
393.991	150.55
394.453	140.45
394.915	138.15
395.377	138.35
395.838	136.85
396.3	142.45
396.762	147.05
397.224	143.15
397.685	134.05
398.147	142.05
398.608	135.45
399.07	139.15
399.531	140.65
399.993	150.15
400.454	157.35
400.916	160.25
401.377	149.15
401.839	158.45
402.3	159.65
402.762	176.35
403.223	188.25
403.684	177.25
404.145	163.75
404.607	171.05
405.068	167.45
405.529	171.25
405.99	188.95
406.451	175.75
406.913	173.25
407.374	176.05
407.835	169.65
408.296	176.25
408.757	183.75
409.218	184.85
409.679	185.45
410.14	177.65
410.601	181.25
411.062	190.75
411.522	191.85
411.983	182.05
412.444	181.45
412.905	193.85
413.366	196.05
413.826	204.25
414.287	234.35
414.748	290.25
415.208	266.85
415.669	223.45
416.13	222.45
416.59	220.85
417.051	226.55
417.511	236.15
417.972	264.25
418.432	272.45
418.893	311.85
419.353	286.35
419.814	215.35
420.274	199.35
420.734	192.95
421.195	207.05
421.655	203.35
422.115	208.55
422.576	200.75
423.036	208.45
423.496	214.75
423.956	220.65
424.416	243.15
424.876	275.35
425.336	263.15
425.797	273.95
426.257	267.35
426.717	253.35
427.177	239.65
427.637	227.85
428.097	242.55
428.556	243.65
429.016	274.65
429.476	267.15
429.936	282.45
430.396	279.25
430.856	299.35
431.315	315.05
431.775	340.85
432.235	375.35
432.694	362.85
433.154	361.25
433.614	382.45
434.073	335.65
434.533	293.95
434.993	274.55
435.452	281.45
435.912	288.45
436.371	282.65
436.83	275.05
437.29	268.35
437.749	250.05
438.209	249.75
438.668	266.55
439.127	278.05
439.587	250.05
440.046	242.85
440.505	259.95
440.964	270.25
441.424	306.95
441.883	293.35
442.342	260.05
442.801	235.45
443.26	232.25
443.719	238.15
444.178	235.75
444.637	224.35
445.096	232.05
445.555	236.15
446.014	235.25
446.473	237.05
446.932	246.95
447.391	233.65
447.849	246.85
448.308	229.95
448.767	240.55
449.226	240.95
449.685	242.25
450.143	262.05
450.602	252.65
451.061	230.25
451.519	238.35
451.978	229.85
452.436	233.55
452.895	244.45
453.353	252.45
453.812	247.35
454.27	241.05
454.729	247.85
455.187	239.45
455.646	244.75
456.104	250.45
456.562	257.85
457.021	263.85
457.479	251.75
457.937	269.55
458.395	258.35
458.854	253.95
459.312	259.95
459.77	271.35
460.228	254.75
460.686	248.65
461.144	258.55
461.602	254.35
462.06	258.65
462.518	258.85
462.976	262.55
463.434	259.15
463.892	260.05
464.35	275.85
464.808	291.25
465.266	268.85
465.724	269.35
466.181	283.25
466.639	284.25
467.097	297.45
467.555	307.15
468.012	300.45
468.47	305.15
468.928	325.75
469.385	332.65
469.843	347.55
470.3	346.85
470.758	354.95
471.215	369.55
471.673	388.25
472.13	382.85
472.588	399.05
473.045	363.75
473.503	370.85
473.96	395.25
474.417	393.45
474.875	419.85
475.332	457.25
475.789	446.95
476.246	454.25
476.704	472.15
477.161	493.45
477.618	499.95
478.075	530.15
478.532	586.65
478.989	639.15
479.446	711.35
479.903	710.75
480.36	745.35
480.817	793.05
481.274	868.85
481.731	967.15
482.188	1026.15
482.645	1153.75
483.102	1242.15
483.558	1341.55
484.015	1400.15
484.472	1380.25
484.929	1339.85
485.385	1306.65
485.842	1271.05
486.299	1228.85
486.755	1165.75
487.212	1007.85
487.668	873.45
488.125	797.05
488.582	750.15
489.038	701.35
489.494	678.55
489.951	655.05
490.407	635.15
490.864	628.55
491.32	609.05
491.776	610.05
492.233	619.45
492.689	582.35
493.145	579.05
493.602	575.85
494.058	578.65
494.514	586.55
494.97	589.25
495.426	603.85
495.882	590.55
496.338	573.95
496.794	580.35
497.251	568.55
497.707	590.35
498.163	586.55
498.618	594.85
499.074	594.55
499.53	626.05
499.986	616.35
500.442	600.25
500.898	584.15
501.354	575.15
501.809	596.65
502.265	591.45
502.721	592.75
503.177	603.85
503.632	605.45
504.088	608.35
504.543	624.75
504.999	625.65
505.455	607.75
505.91	596.95
506.366	600.75
506.821	593.25
507.277	594.85
507.732	602.25
508.187	597.35
508.643	603.35
509.098	597.75
509.553	626.45
510.009	621.15
510.464	630.25
510.919	648.65
511.375	648.85
511.83	640.55
512.285	659.05
512.74	692.25
513.195	713.45
513.65	701.85
514.105	697.55
514.56	701.25
515.015	714.35
515.47	726.65
515.925	726.05
516.38	715.75
516.835	739.35
517.29	711.85
517.745	705.45
518.2	701.35
518.655	692.85
519.109	676.15
519.564	674.35
520.019	667.65
520.474	653.05
520.928	664.95
521.383	657.95
521.838	646.25
522.292	648.65
522.747	647.25
523.201	647.85
523.656	638.55
524.11	635.75
524.565	631.15
525.019	625.85
525.474	630.15
525.928	632.85
526.382	629.75
526.837	623.85
527.291	637.75
527.745	624.85
528.2	619.45
528.654	618.65
529.108	616.65
529.562	619.95
530.016	613.65
530.47	611.15
530.925	608.55
531.379	614.35
531.833	623.45
532.287	617.45
532.741	620.25
533.195	620.35
533.649	622.05
534.103	624.15
534.556	610.55
535.01	612.85
535.464	611.95
535.918	624.15
536.372	622.35
536.826	632.65
537.279	618.05
537.733	618.05
538.187	619.85
538.64	619.05
539.094	629.15
539.548	646.65
540.001	622.75
540.455	625.35
540.908	641.35
541.362	653.85
541.815	644.55
542.269	663.45
542.722	667.25
543.175	661.25
543.629	672.15
544.082	690.65
544.536	690.25
544.989	685.35
545.442	691.45
545.895	695.55
546.349	691.85
546.802	690.35
547.255	695.15
547.708	704.35
548.161	710.15
548.614	701.35
549.067	718.95
549.52	703.45
549.973	702.85
550.426	689.15
550.879	678.85
551.332	683.25
551.785	687.35
552.238	692.95
552.691	690.45
553.144	708.25
553.596	717.75
554.049	727.55
554.502	744.65
554.955	767.85
555.407	764.35
555.86	774.55
556.313	752.05
556.765	745.95
557.218	742.85
557.67	744.35
558.123	738.05
558.576	734.75
559.028	731.55
559.48	735.55
559.933	734.45
560.385	708.45
560.838	695.55
561.29	662.75
561.742	665.35
562.195	648.75
562.647	643.25
563.099	649.55
563.551	644.15
564.004	657.25
564.456	631.45
564.908	629.45
565.36	616.75
565.812	599.95
566.264	598.95
566.716	591.35
567.168	579.25
567.62	587.85
568.072	572.65
568.524	582.05
568.976	578.25
569.428	563.55
569.88	553.55
570.332	561.05
570.784	561.35
571.235	556.05
571.687	567.45
572.139	576.45
572.59	575.55
573.042	586.75
573.494	575.85
573.945	581.85
574.397	555.75
574.849	560.55
575.3	558.25
575.752	556.45
576.203	542.15
576.655	549.65
577.106	539.35
577.557	537.95
578.009	542.85
578.46	545.05
578.912	534.55
579.363	539.65
579.814	530.75
580.265	522.85
580.717	534.45
581.168	529.45
581.619	539.85
582.07	539.95
582.521	537.75
582.972	532.65
583.423	549.85
583.875	538.45
584.326	539.65
584.777	555.75
585.227	581.25
585.678	592.85
586.129	613.35
586.58	644.25
587.031	663.75
587.482	713.85
587.933	748.15
588.384	716.65
588.834	648.75
589.285	618.55
589.736	606.85
590.186	611.25
590.637	604.35
591.088	592.05
591.538	595.25
591.989	566.05
592.439	569.65
592.89	569.15
593.34	558.15
593.791	555.25
594.241	545.55
594.692	545.05
595.142	541.55
595.593	543.65
596.043	544.55
596.493	548.25
596.943	544.15
597.394	557.75
597.844	559.05
598.294	577.55
598.744	587.45
599.195	602.25
599.645	638.05
600.095	658.45
600.545	699.25
600.995	736.45
601.445	785.35
601.895	838.65
602.345	871.15
602.795	863.75
603.245	828.45
603.695	787.05
604.145	746.65
604.594	697.45
605.044	670.15
605.494	628.25
605.944	584.35
606.393	570.65
606.843	563.65
607.293	560.35
607.743	555.95
608.192	563.85
608.642	569.85
609.091	573.15
609.541	584.95
609.99	574.65
610.44	567.15
610.889	545.25
611.339	522.15
611.788	514.05
612.238	532.55
612.687	537.55
613.136	528.75
613.586	536.25
614.035	528.45
614.484	537.25
614.933	528.95
615.383	532.65
615.832	533.05
616.281	516.15
616.73	508.45
617.179	497.95
617.628	484.35
618.077	471.95
618.526	466.45
618.975	468.55
619.424	470.45
619.873	456.45
620.322	463.35
620.771	450.25
621.22	453.65
621.669	442.55
622.118	439.85
622.567	429.45
623.015	423.15
623.464	424.75
623.913	418.15
624.361	412.35
624.81	408.75
625.259	405.05
625.707	413.95
626.156	411.95
626.604	422.95
627.053	421.85
627.501	418.25
627.95	424.55
628.398	425.15
628.847	427.55
629.295	419.75
629.744	429.75
630.192	411.25
630.64	410.45
631.089	406.25
631.537	403.55
631.985	394.75
632.433	389.55
632.881	387.35
633.33	403.95
633.778	389.45
634.226	384.45
634.674	387.95
635.122	389.65
635.57	404.05
636.018	403.45
636.466	406.55
636.914	409.15
637.362	421.85
637.81	413.05
638.258	428.25
638.705	419.55
639.153	444.55
639.601	451.85
640.049	467.05
640.497	495.95
640.944	507.25
641.392	474.45
641.84	449.65
642.287	429.95
642.735	405.15
643.182	417.75
643.63	404.05
644.078	413.95
644.525	427.95
644.973	427.95
645.42	424.95
645.867	441.45
646.315	459.45
646.762	459.95
647.21	485.25
647.657	496.45
648.104	534.35
648.551	541.35
648.999	577.45
649.446	627.55
649.893	680.55
650.34	773.85
650.787	909.95
651.234	1121.35
651.682	1431.35
652.129	1909.65
652.576	2716.45
653.023	3975.35
653.47	5494.65
653.917	6917.15
654.363	8152.35
654.81	9217.15
655.257	8780.85
655.704	5804.15
656.151	3434.55
656.598	2251.35
657.044	1609.85
657.491	1250.45
657.938	1000.55
658.385	846.75
658.831	740.65
659.278	667.45
659.724	581.55
660.171	547.35
660.618	495.25
661.064	473.15
661.511	453.15
661.957	438.85
662.404	434.05
662.85	443.35
663.296	424.45
663.743	399.25
664.189	377.35
664.635	378.75
665.082	372.15
665.528	366.95
665.974	371.75
666.42	364.25
666.867	357.35
667.313	337.95
667.759	334.05
668.205	327.55
668.651	325.35
669.097	324.35
669.543	316.75
669.989	315.45
670.435	321.75
670.881	328.65
671.327	321.85
671.773	334.75
672.219	343.55
672.665	390.55
673.11	423.75
673.556	441.95
674.002	481.25
674.448	477.45
674.893	398.05
675.339	336.95
675.785	320.65
676.23	304.05
676.676	278.05
677.122	276.45
677.567	262.95
678.013	263.55
678.458	251.75
678.904	258.15
679.349	238.15
679.794	251.25
680.24	246.55
680.685	235.75
681.131	246.55
681.576	250.55
682.021	250.85
682.466	240.05
682.912	241.75
683.357	244.25
683.802	268.25
684.247	286.15
684.692	308.55
685.137	358.35
685.583	380.65
686.028	407.35
686.473	370.15
686.918	316.05
687.363	297.75
687.807	279.05
688.252	258.15
688.697	244.25
689.142	239.55
689.587	243.25
690.032	229.75
690.477	243.75
690.921	242.15
691.366	274.05
691.811	281.25
692.255	299.55
692.7	325.45
693.145	351.15
693.589	466.75
694.034	778.25
694.478	1069.35
694.923	1266.35
695.367	1681.65
695.812	880.95
696.256	360.85
696.701	261.55
697.145	241.85
697.59	233.95
698.034	228.45
698.478	229.65
698.922	223.55
699.367	231.95
699.811	233.75
700.255	247.75
700.699	273.25
701.143	288.25
701.588	338.65
702.032	360.25
702.476	367.95
702.92	345.85
703.364	345.05
703.808	435.05
704.252	698.15
704.696	1000.25
705.14	1221.85
705.584	1575.15
706.027	781.15
706.471	370.65
706.915	279.05
707.359	249.35
707.803	228.55
708.246	216.25
708.69	223.75
709.134	223.75
709.577	223.55
710.021	229.05
710.465	215.95
710.908	208.75
711.352	207.35
711.795	222.65
712.239	243.15
712.682	265.95
713.126	300.45
713.569	320.35
714.012	255.25
714.456	220.95
714.899	203.85
715.342	195.05
715.786	186.45
716.229	184.95
716.672	184.25
717.115	172.35
717.558	179.45
718.002	174.55
718.445	177.35
718.888	199.15
719.331	201.55
719.774	213.25
720.217	216.95
720.66	195.55
721.103	190.25
721.546	183.05
721.989	172.55
722.432	154.65
722.874	161.35
723.317	163.85
723.76	167.25
724.203	176.55
724.645	213.45
725.088	297.15
725.531	400.05
725.974	462.85
726.416	397.55
726.859	219.35
727.301	173.95
727.744	169.85
728.187	159.45
728.629	173.75
729.071	166.55
729.514	187.35
729.956	189.25
730.399	197.55
730.841	201.95
731.283	190.95
731.726	191.35
732.168	181.65
732.61	186.35
733.053	198.05
733.495	215.75
733.937	238.05
734.379	275.25
734.821	298.05
735.263	366.85
735.705	557.55
736.148	1056.25
736.59	1793.45
737.032	2266.35
737.474	1849.55
737.916	587.35
738.357	305.05
738.799	228.15
739.241	207.35
739.683	203.15
740.125	204.65
740.567	209.75
741.008	232.75
741.45	233.45
741.892	224.85
742.334	250.45
742.775	269.65
743.217	265.35
743.658	198.95
744.1	180.45
744.542	186.05
744.983	232.95
745.425	266.75
745.866	263.55
746.307	199.15
746.749	201.55
747.19	225.35
747.632	306.25
748.073	575.75
748.514	1247.95
748.956	2038.35
749.397	2516.75
749.838	2115.35
750.279	2201.75
750.72	1113.55
751.162	392.15
751.603	234.35
752.044	187.35
752.485	157.05
752.926	146.05
753.367	142.55
753.808	136.95
754.249	127.05
754.69	128.15
755.131	123.85
755.572	128.15
756.013	127.45
756.453	123.65
756.894	127.15
757.335	135.65
757.776	141.35
758.216	136.15
758.657	138.05
759.098	137.95
759.538	149.45
759.979	184.45
760.42	250.45
760.86	471.15
761.301	1232.15
761.741	3064.15
762.182	4884.35
762.622	3483.25
763.063	971.25
763.503	394.05
763.943	233.55
