Data from 20171114-ORNL-Ar_H_NY_Subt18_08-04-04-519.txt Node
Date: Tue Nov 14 08:04:04 EST 2017
User: Ender
Spectrometer: HR+D1039
Trigger mode: 0
Integration Time (sec): 2.730000E-2
Scans to average: 10
Electric dark correction enabled: true
Nonlinearity correction enabled: false
Boxcar width: 0
XAxis mode: Wavelengths
Number of Pixels in Spectrum: 2048
>>>>>Begin Spectral Data<<<<<
187.836	-4.06
188.309	-4.06
188.782	-4.06
189.255	2.44
189.728	-4.36
190.201	7.24
190.674	0.74
191.147	0.44
191.619	-4.16
192.092	1.54
192.565	3.94
193.038	-6.36
193.511	4.94
193.984	1.04
194.456	1.94
194.929	0.74
195.402	-3.26
195.874	-2.86
196.347	-4.26
196.82	-3.06
197.292	2.14
197.765	1.34
198.237	-13.76
198.71	0.44
199.182	-5.06
199.655	0.44
200.127	-0.66
200.6	-5.76
201.072	-3.16
201.544	-4.86
202.017	-0.36
202.489	-1.86
202.961	-7.16
203.433	-4.16
203.906	-7.06
204.378	-3.86
204.85	-1.66
205.322	-11.66
205.794	1.44
206.266	-4.76
206.739	-10.66
207.211	3.34
207.683	-7.16
208.155	-4.66
208.627	-4.16
209.099	-6.96
209.57	-11.46
210.042	-5.06
210.514	-2.96
210.986	-0.16
211.458	-7.96
211.93	5.14
212.402	4.14
212.873	-6.76
213.345	-9.66
213.817	-10.86
214.288	-2.06
214.76	-9.96
215.232	-4.46
215.703	-1.56
216.175	-5.96
216.646	-3.86
217.118	-8.36
217.589	-3.16
218.061	-1.76
218.532	-3.66
219.004	-3.16
219.475	-4.96
219.946	-0.06
220.418	-8.06
220.889	0.24
221.36	0.04
221.832	-4.46
222.303	-0.66
222.774	-0.26
223.245	-10.86
223.717	-6.16
224.188	-3.96
224.659	-8.26
225.13	-3.46
225.601	1.84
226.072	2.54
226.543	-3.26
227.014	-0.76
227.485	-7.66
227.956	-6.76
228.427	-3.36
228.898	0.34
229.369	6.24
229.839	-4.86
230.31	-1.46
230.781	-0.16
231.252	-1.36
231.722	-8.16
232.193	-3.76
232.664	-1.06
233.135	-1.36
233.605	-2.46
234.076	-3.76
234.546	1.24
235.017	-5.16
235.487	-3.66
235.958	-1.86
236.428	-1.46
236.899	0.54
237.369	-2.46
237.84	-2.56
238.31	7.94
238.78	3.74
239.251	-3.96
239.721	0.94
240.191	-0.06
240.662	-8.36
241.132	4.14
241.602	-3.86
242.072	1.14
242.542	3.34
243.013	-0.16
243.483	4.54
243.953	5.44
244.423	1.04
244.893	-1.86
245.363	1.04
245.833	0.04
246.303	-4.36
246.773	-0.16
247.243	1.54
247.712	3.54
248.182	7.54
248.652	3.94
249.122	-5.16
249.592	16.94
250.061	12.84
250.531	20.84
251.001	8.34
251.471	8.84
251.94	14.74
252.41	1.64
252.879	-0.16
253.349	12.04
253.818	8.04
254.288	-4.16
254.757	1.34
255.227	-2.26
255.696	2.94
256.166	5.24
256.635	5.94
257.105	6.04
257.574	6.04
258.043	4.34
258.513	-0.46
258.982	11.34
259.451	1.04
259.92	10.54
260.389	-1.86
260.859	11.84
261.328	7.84
261.797	11.24
262.266	2.54
262.735	6.54
263.204	-0.76
263.673	-6.26
264.142	9.54
264.611	-5.06
265.08	-0.76
265.549	-4.86
266.018	2.24
266.487	-0.46
266.955	-3.76
267.424	-7.86
267.893	1.94
268.362	3.04
268.83	-2.66
269.299	12.64
269.768	3.24
270.236	5.34
270.705	-0.06
271.174	0.04
271.642	7.04
272.111	0.44
272.579	4.14
273.048	12.94
273.516	13.64
273.985	14.04
274.453	10.74
274.922	14.64
275.39	2.64
275.858	1.64
276.327	8.04
276.795	10.64
277.263	-1.66
277.731	19.54
278.2	21.94
278.668	33.84
279.136	32.14
279.604	7.34
280.072	10.34
280.54	1.34
281.008	8.34
281.477	5.84
281.945	10.34
282.413	9.64
282.881	17.34
283.348	2.24
283.816	9.14
284.284	8.14
284.752	9.64
285.22	4.64
285.688	5.34
286.156	13.24
286.623	28.34
287.091	31.84
287.559	13.84
288.026	11.84
288.494	10.14
288.962	0.74
289.429	0.04
289.897	13.24
290.364	10.64
290.832	11.44
291.3	10.24
291.767	16.44
292.234	12.24
292.702	7.74
293.169	11.64
293.637	15.54
294.104	17.74
294.571	-2.26
295.039	3.54
295.506	6.64
295.973	10.04
296.44	9.74
296.908	13.24
297.375	15.34
297.842	12.54
298.309	10.14
298.776	14.14
299.243	14.54
299.71	11.54
300.177	16.44
300.644	12.14
301.111	4.54
301.578	17.64
302.045	14.74
302.512	14.04
302.979	18.74
303.446	15.94
303.913	5.64
304.379	9.44
304.846	17.64
305.313	16.24
305.78	15.34
306.246	18.84
306.713	17.14
307.18	21.04
307.646	17.14
308.113	20.04
308.579	12.04
309.046	13.04
309.512	17.84
309.979	15.64
310.445	22.84
310.912	25.64
311.378	22.14
311.845	18.64
312.311	22.34
312.777	22.34
313.244	18.34
313.71	24.64
314.176	20.64
314.642	21.94
315.109	17.14
315.575	23.34
316.041	26.74
316.507	18.74
316.973	25.74
317.439	30.24
317.905	24.34
318.371	24.94
318.837	23.74
319.303	27.54
319.769	24.84
320.235	20.54
320.701	28.94
321.167	25.24
321.633	25.94
322.099	28.04
322.564	37.74
323.03	26.84
323.496	22.54
323.962	34.84
324.427	25.74
324.893	34.84
325.359	24.94
325.824	28.24
326.29	29.34
326.755	32.24
327.221	32.44
327.686	35.24
328.152	40.24
328.617	30.74
329.083	35.24
329.548	37.64
330.014	32.44
330.479	30.14
330.944	32.54
331.41	36.74
331.875	41.44
332.34	38.44
332.805	32.64
333.271	39.14
333.736	31.14
334.201	38.94
334.666	37.34
335.131	38.54
335.596	42.94
336.061	42.24
336.526	29.94
336.991	36.24
337.456	47.74
337.921	39.54
338.386	31.64
338.851	34.54
339.316	38.34
339.781	32.84
340.246	44.64
340.711	36.74
341.175	38.94
341.64	31.14
342.105	41.44
342.569	42.64
343.034	48.84
343.499	42.74
343.963	31.74
344.428	51.44
344.893	53.14
345.357	46.64
345.822	45.44
346.286	53.54
346.751	50.94
347.215	45.84
347.679	57.84
348.144	69.14
348.608	68.34
349.073	52.24
349.537	51.64
350.001	58.24
350.465	67.94
350.93	57.94
351.394	56.84
351.858	54.34
352.322	70.24
352.786	66.44
353.25	74.04
353.715	83.14
354.179	75.84
354.643	92.84
355.107	94.34
355.571	76.54
356.035	80.54
356.498	83.04
356.962	90.14
357.426	100.34
357.89	86.64
358.354	70.84
358.818	67.74
359.281	67.94
359.745	64.04
360.209	65.24
360.673	62.94
361.136	66.14
361.6	67.74
362.064	75.54
362.527	75.54
362.991	80.54
363.454	68.64
363.918	61.54
364.381	61.74
364.845	65.14
365.308	72.04
365.772	74.14
366.235	69.14
366.698	75.14
367.162	69.64
367.625	70.84
368.088	76.54
368.552	76.24
369.015	75.54
369.478	84.64
369.941	83.04
370.404	72.24
370.867	88.34
371.331	91.24
371.794	92.54
372.257	89.74
372.72	96.04
373.183	93.54
373.646	92.04
374.109	81.24
374.572	86.84
375.035	87.14
375.497	90.04
375.96	84.94
376.423	79.24
376.886	90.54
377.349	91.44
377.811	87.14
378.274	92.64
378.737	93.54
379.199	98.74
379.662	90.44
380.125	101.24
380.587	96.74
381.05	101.74
381.512	103.84
381.975	118.64
382.437	109.04
382.9	103.74
383.362	108.24
383.825	118.94
384.287	120.54
384.75	115.84
385.212	117.44
385.674	114.64
386.136	119.74
386.599	109.74
387.061	108.24
387.523	110.54
387.985	113.74
388.447	118.74
388.91	120.74
389.372	132.44
389.834	124.44
390.296	127.54
390.758	126.24
391.22	143.34
391.682	165.04
392.144	232.04
392.606	182.14
393.068	143.44
393.529	148.04
393.991	126.54
394.453	129.44
394.915	129.44
395.377	153.44
395.838	172.34
396.3	134.74
396.762	123.04
397.224	121.24
397.685	110.04
398.147	112.84
398.608	109.74
399.07	107.34
399.531	119.54
399.993	119.24
400.454	133.94
400.916	126.14
401.377	125.54
401.839	135.84
402.3	119.64
402.762	146.04
403.223	156.64
403.684	150.64
404.145	143.74
404.607	139.74
405.068	145.24
405.529	149.44
405.99	158.64
406.451	148.44
406.913	155.84
407.374	142.14
407.835	144.94
408.296	151.84
408.757	145.34
409.218	159.14
409.679	157.74
410.14	152.24
410.601	156.04
411.062	166.24
411.522	169.04
411.983	166.94
412.444	153.84
412.905	164.34
413.366	166.44
413.826	171.74
414.287	196.84
414.748	235.64
415.208	226.64
415.669	192.14
416.13	192.54
416.59	180.64
417.051	196.74
417.511	199.64
417.972	220.44
418.432	224.24
418.893	258.34
419.353	232.14
419.814	177.14
420.274	163.54
420.734	154.44
421.195	173.14
421.655	172.44
422.115	170.74
422.576	175.14
423.036	175.04
423.496	184.74
423.956	190.04
424.416	206.24
424.876	238.24
425.336	231.64
425.797	229.14
426.257	223.14
426.717	211.04
427.177	203.64
427.637	199.74
428.097	211.04
428.556	214.44
429.016	242.04
429.476	233.44
429.936	242.24
430.396	245.24
430.856	257.44
431.315	269.04
431.775	303.34
432.235	327.64
432.694	308.74
433.154	320.24
433.614	328.64
434.073	292.24
434.533	253.54
434.993	236.64
435.452	255.54
435.912	248.54
436.371	245.74
436.83	245.74
437.29	236.24
437.749	220.94
438.209	220.14
438.668	236.84
439.127	244.24
439.587	229.04
440.046	213.64
440.505	221.64
440.964	230.14
441.424	265.14
441.883	255.44
442.342	224.24
442.801	200.34
443.26	197.84
443.719	196.74
444.178	200.84
444.637	185.34
445.096	198.04
445.555	193.54
446.014	192.34
446.473	205.04
446.932	206.94
447.391	203.44
447.849	206.04
448.308	197.74
448.767	196.04
449.226	212.14
449.685	210.94
450.143	220.64
450.602	205.74
451.061	205.14
451.519	208.94
451.978	203.04
452.436	210.74
452.895	213.94
453.353	218.44
453.812	210.54
454.27	210.24
454.729	208.54
455.187	210.14
455.646	217.64
456.104	217.04
456.562	228.14
457.021	228.84
457.479	223.14
457.937	233.14
458.395	231.04
458.854	213.64
459.312	220.54
459.77	230.34
460.228	215.54
460.686	216.74
461.144	222.34
461.602	214.64
462.06	218.44
462.518	227.94
462.976	223.94
463.434	231.84
463.892	233.64
464.35	244.44
464.808	250.04
465.266	238.54
465.724	241.04
466.181	250.24
466.639	246.24
467.097	256.44
467.555	268.24
468.012	267.54
468.47	281.64
468.928	294.54
469.385	303.44
469.843	302.74
470.3	307.84
470.758	316.94
471.215	321.94
471.673	342.24
472.13	342.44
472.588	355.44
473.045	318.94
473.503	333.94
473.96	348.84
474.417	349.54
474.875	380.74
475.332	408.44
475.789	403.64
476.246	402.04
476.704	432.64
477.161	441.14
477.618	451.54
478.075	484.24
478.532	534.14
478.989	590.84
479.446	671.94
479.903	671.04
480.36	705.64
480.817	754.34
481.274	844.94
481.731	928.44
482.188	1014.64
482.645	1141.34
483.102	1224.24
483.558	1334.94
484.015	1394.54
484.472	1388.34
484.929	1328.14
485.385	1295.64
485.842	1269.54
486.299	1197.84
486.755	1125.14
487.212	966.54
487.668	820.94
488.125	762.84
488.582	696.04
489.038	668.24
489.494	636.64
489.951	613.94
490.407	590.64
490.864	569.04
491.32	564.04
491.776	567.14
492.233	569.64
492.689	525.84
493.145	530.54
493.602	528.34
494.058	536.14
494.514	536.94
494.97	548.84
495.426	554.64
495.882	534.14
496.338	536.84
496.794	542.84
497.251	545.34
497.707	549.34
498.163	555.54
498.618	560.34
499.074	557.94
499.53	573.24
499.986	578.04
500.442	572.94
500.898	560.94
501.354	542.44
501.809	548.44
502.265	556.04
502.721	571.24
503.177	580.24
503.632	567.34
504.088	586.34
504.543	606.74
504.999	613.94
505.455	561.54
505.91	546.54
506.366	553.04
506.821	541.74
507.277	548.34
507.732	551.24
508.187	555.94
508.643	554.34
509.098	553.74
509.553	566.54
510.009	577.14
510.464	589.24
510.919	600.14
511.375	603.24
511.83	611.54
512.285	630.44
512.74	662.64
513.195	676.04
513.65	666.44
514.105	672.74
514.56	676.44
515.015	680.74
515.47	706.94
515.925	688.24
516.38	691.04
516.835	694.64
517.29	685.84
517.745	672.84
518.2	665.64
518.655	655.54
519.109	639.84
519.564	651.94
520.019	636.04
520.474	639.34
520.928	632.44
521.383	624.74
521.838	618.44
522.292	616.84
522.747	610.24
523.201	609.34
523.656	592.54
524.11	597.54
524.565	598.64
525.019	593.04
525.474	600.14
525.928	611.34
526.382	595.94
526.837	596.14
527.291	596.54
527.745	601.54
528.2	593.94
528.654	597.64
529.108	585.34
529.562	588.64
530.016	585.24
530.47	596.74
530.925	590.64
531.379	592.84
531.833	599.64
532.287	598.74
532.741	601.44
533.195	608.34
533.649	602.74
534.103	614.14
534.556	605.44
535.01	599.34
535.464	601.84
535.918	604.14
536.372	613.14
536.826	613.24
537.279	596.34
537.733	611.54
538.187	608.24
538.64	606.24
539.094	612.24
539.548	617.64
540.001	623.14
540.455	604.04
540.908	627.24
541.362	619.54
541.815	641.34
542.269	643.94
542.722	657.34
543.175	653.24
543.629	650.14
544.082	672.94
544.536	666.94
544.989	665.94
545.442	668.84
545.895	668.94
546.349	674.04
546.802	668.14
547.255	681.04
547.708	679.64
548.161	685.94
548.614	686.84
549.067	699.44
549.52	689.64
549.973	687.74
550.426	674.74
550.879	670.24
551.332	670.94
551.785	669.74
552.238	681.64
552.691	682.44
553.144	696.74
553.596	697.04
554.049	725.34
554.502	748.64
554.955	762.34
555.407	756.04
555.86	751.84
556.313	740.84
556.765	724.14
557.218	736.74
557.67	737.14
558.123	722.14
558.576	719.74
559.028	732.14
559.48	731.64
559.933	727.04
560.385	695.74
560.838	681.74
561.29	654.34
561.742	654.34
562.195	630.74
562.647	632.74
563.099	641.14
563.551	640.34
564.004	650.34
564.456	635.94
564.908	629.74
565.36	614.24
565.812	601.94
566.264	596.64
566.716	588.94
567.168	585.84
567.62	596.74
568.072	571.64
568.524	565.84
568.976	573.04
569.428	560.24
569.88	552.34
570.332	548.34
570.784	559.14
571.235	554.44
571.687	570.64
572.139	572.14
572.59	574.74
573.042	588.74
573.494	588.24
573.945	573.24
574.397	569.94
574.849	568.44
575.3	562.94
575.752	560.64
576.203	559.14
576.655	557.04
577.106	539.04
577.557	539.94
578.009	543.54
578.46	546.64
578.912	528.64
579.363	538.84
579.814	540.44
580.265	532.24
580.717	529.64
581.168	543.64
581.619	551.54
582.07	537.04
582.521	544.34
582.972	539.34
583.423	546.14
583.875	546.14
584.326	558.64
584.777	596.34
585.227	656.84
585.678	720.44
586.129	779.54
586.58	846.54
587.031	907.54
587.482	1026.74
587.933	1181.64
588.384	1032.94
588.834	781.54
589.285	649.34
589.736	637.24
590.186	633.94
590.637	617.04
591.088	593.74
591.538	604.04
591.989	589.94
592.439	586.14
592.89	575.54
593.34	565.04
593.791	570.84
594.241	565.84
594.692	565.74
595.142	553.94
595.593	554.34
596.043	561.34
596.493	564.14
596.943	561.34
597.394	569.64
597.844	574.14
598.294	582.64
598.744	595.94
599.195	620.34
599.645	651.14
600.095	673.74
600.545	724.14
600.995	757.04
601.445	812.24
601.895	862.04
602.345	893.84
602.795	884.64
603.245	850.84
603.695	809.64
604.145	755.14
604.594	732.14
605.044	681.54
605.494	623.44
605.944	602.24
606.393	580.54
606.843	575.14
607.293	580.24
607.743	579.94
608.192	568.74
608.642	600.94
609.091	591.44
609.541	609.24
609.99	601.94
610.44	588.94
610.889	561.34
611.339	547.14
611.788	530.24
612.238	542.44
612.687	560.04
613.136	562.24
613.586	576.74
614.035	571.84
614.484	586.74
614.933	584.24
615.383	575.04
615.832	568.94
616.281	558.14
616.73	545.24
617.179	519.64
617.628	513.54
618.077	489.94
618.526	491.44
618.975	480.14
619.424	475.84
619.873	481.54
620.322	470.74
620.771	469.14
621.22	466.24
621.669	454.64
622.118	454.34
622.567	448.34
623.015	445.74
623.464	439.64
623.913	437.64
624.361	423.54
624.81	416.44
625.259	429.64
625.707	439.94
626.156	430.74
626.604	440.54
627.053	432.74
627.501	438.74
627.95	438.34
628.398	441.04
628.847	445.84
629.295	441.54
629.744	437.94
630.192	433.94
630.64	435.94
631.089	431.84
631.537	430.74
631.985	431.14
632.433	436.94
632.881	449.14
633.33	476.04
633.778	466.84
634.226	421.14
634.674	430.94
635.122	432.24
635.57	440.44
636.018	465.14
636.466	445.94
636.914	424.44
637.362	429.84
637.81	443.04
638.258	446.44
638.705	441.34
639.153	470.14
639.601	467.44
640.049	489.84
640.497	520.04
640.944	528.94
641.392	480.14
641.84	470.54
642.287	449.04
642.735	435.04
643.182	435.94
643.63	438.84
644.078	443.44
644.525	451.64
644.973	455.64
645.42	459.84
645.867	471.84
646.315	485.24
646.762	501.34
647.21	513.14
647.657	538.44
648.104	568.14
648.551	581.64
648.999	632.64
649.446	681.94
649.893	761.24
650.34	867.24
650.787	1042.14
651.234	1278.64
651.682	1637.34
652.129	2248.14
652.576	3207.74
653.023	4763.24
653.47	6651.34
653.917	8355.34
654.363	9880.74
654.81	11146.44
655.257	10613.44
655.704	6909.34
656.151	4013.94
656.598	2605.84
657.044	1845.74
657.491	1412.64
657.938	1122.94
658.385	946.74
658.831	817.24
659.278	719.54
659.724	647.44
660.171	587.94
660.618	541.34
661.064	513.84
661.511	489.94
661.957	474.34
662.404	465.04
662.85	473.04
663.296	456.04
663.743	419.44
664.189	409.84
664.635	402.94
665.082	397.04
665.528	391.94
665.974	387.34
666.42	384.54
666.867	373.64
667.313	357.74
667.759	365.44
668.205	356.54
668.651	359.84
669.097	358.04
669.543	367.64
669.989	344.54
670.435	338.74
670.881	339.04
671.327	338.14
671.773	355.84
672.219	357.84
672.665	407.04
673.11	437.54
673.556	470.54
674.002	509.44
674.448	499.94
674.893	418.04
675.339	359.24
675.785	332.54
676.23	310.34
676.676	283.54
677.122	286.64
677.567	282.24
678.013	281.04
678.458	267.94
678.904	270.04
679.349	257.74
679.794	263.24
680.24	264.14
680.685	263.04
681.131	259.84
681.576	264.54
682.021	266.34
682.466	255.24
682.912	252.94
683.357	259.04
683.802	276.24
684.247	293.74
684.692	333.04
685.137	364.74
685.583	404.34
686.028	419.74
686.473	390.94
686.918	327.54
687.363	306.64
687.807	292.04
688.252	265.24
688.697	270.64
689.142	251.44
689.587	249.14
690.032	239.44
690.477	251.04
690.921	258.34
691.366	288.74
691.811	297.24
692.255	317.14
692.7	340.94
693.145	368.34
693.589	493.04
694.034	802.24
694.478	1142.54
694.923	1331.44
695.367	1772.74
695.812	924.44
696.256	377.24
696.701	273.64
697.145	249.94
697.59	247.64
698.034	232.04
698.478	247.44
698.922	248.54
699.367	244.54
699.811	242.84
700.255	259.74
700.699	285.04
701.143	309.54
701.588	348.64
702.032	392.54
702.476	384.74
702.92	369.44
703.364	361.24
703.808	449.24
704.252	736.84
704.696	1070.04
705.14	1268.84
705.584	1652.64
706.027	819.64
706.471	396.84
706.915	286.74
707.359	266.44
707.803	239.74
708.246	236.34
708.69	229.14
709.134	227.14
709.577	238.74
710.021	235.94
710.465	227.84
710.908	217.14
711.352	222.64
711.795	233.74
712.239	248.64
712.682	281.64
713.126	311.74
713.569	353.34
714.012	273.24
714.456	240.14
714.899	219.14
715.342	203.14
715.786	196.84
716.229	194.14
716.672	190.94
717.115	182.34
717.558	188.64
718.002	188.84
718.445	197.54
718.888	215.54
719.331	213.04
719.774	224.84
720.217	228.44
720.66	214.54
721.103	196.04
721.546	199.74
721.989	183.44
722.432	166.84
722.874	176.14
723.317	168.44
723.76	177.74
724.203	181.84
724.645	226.64
725.088	320.84
725.531	414.54
725.974	482.74
726.416	420.74
726.859	223.24
727.301	182.04
727.744	169.84
728.187	171.74
728.629	170.74
729.071	176.64
729.514	193.64
729.956	188.74
730.399	205.04
730.841	210.74
731.283	202.44
731.726	192.34
732.168	191.34
732.61	197.24
733.053	216.14
733.495	225.04
733.937	255.24
734.379	294.54
734.821	310.74
735.263	390.44
735.705	595.44
736.148	1126.74
736.59	1898.24
737.032	2366.74
737.474	1930.34
737.916	613.04
738.357	319.74
738.799	241.04
739.241	217.84
739.683	208.64
740.125	210.34
740.567	218.74
741.008	237.24
741.45	237.04
741.892	233.64
742.334	258.84
742.775	270.54
743.217	261.34
743.658	200.94
744.1	187.04
744.542	189.94
744.983	232.14
745.425	261.64
745.866	259.44
746.307	207.14
746.749	203.94
747.19	235.44
747.632	330.44
748.073	617.04
748.514	1334.04
748.956	2142.04
749.397	2674.04
749.838	2225.94
750.279	2293.84
750.72	1145.04
751.162	410.14
751.603	240.34
752.044	188.54
752.485	158.94
752.926	148.24
753.367	154.94
753.808	143.84
754.249	140.04
754.69	138.24
755.131	131.14
755.572	131.04
756.013	125.04
756.453	130.34
756.894	139.14
757.335	140.94
757.776	144.84
758.216	140.84
758.657	143.84
759.098	151.94
759.538	162.84
759.979	190.54
760.42	265.84
760.86	498.24
761.301	1281.74
761.741	3251.64
762.182	5088.34
762.622	3591.14
763.063	1012.14
763.503	405.04
763.943	253.74
