Data from 20171114-ORNL-Ar_H_NY_Subt18_08-03-09-651.txt Node
Date: Tue Nov 14 08:03:09 EST 2017
User: Ender
Spectrometer: HR+D1039
Trigger mode: 0
Integration Time (sec): 2.730000E-2
Scans to average: 10
Electric dark correction enabled: true
Nonlinearity correction enabled: false
Boxcar width: 0
XAxis mode: Wavelengths
Number of Pixels in Spectrum: 2048
>>>>>Begin Spectral Data<<<<<
187.836	-4.62
188.309	-4.62
188.782	-4.62
189.255	-1.23
189.728	-0.42
190.201	6.27
190.674	3.77
191.147	-1.03
191.619	-7.33
192.092	-1.73
192.565	9.57
193.038	0.17
193.511	0.57
193.984	4.48
194.456	-2.83
194.929	1.48
195.402	-3.93
195.874	-3.23
196.347	-1.83
196.82	-7.52
197.292	5.17
197.765	0.58
198.237	-4.83
198.71	0.77
199.182	2.27
199.655	1.57
200.127	-2.93
200.6	-2.43
201.072	-3.03
201.544	-2.92
202.017	1.77
202.489	5.38
202.961	-1.02
203.433	-5.33
203.906	-8.23
204.378	-7.82
204.85	-7.13
205.322	-5.12
205.794	-3.63
206.266	-1.73
206.739	-7.23
207.211	4.48
207.683	-9.12
208.155	-4.33
208.627	-5.93
209.099	-3.02
209.57	-7.82
210.042	-10.63
210.514	-4.82
210.986	-8.33
211.458	-13.33
211.93	-1.53
212.402	3.77
212.873	-10.43
213.345	-6.33
213.817	-8.43
214.288	-7.43
214.76	-8.03
215.232	-2.73
215.703	-3.62
216.175	-8.93
216.646	-6.23
217.118	-8.23
217.589	-3.42
218.061	4.27
218.532	-6.42
219.004	-2.43
219.475	-11.33
219.946	-4.23
220.418	-7.52
220.889	-2.62
221.36	0.18
221.832	-7.62
222.303	-9.42
222.774	-0.83
223.245	-6.73
223.717	-8.12
224.188	0.77
224.659	-7.83
225.13	-10.23
225.601	-0.83
226.072	-2.02
226.543	-0.53
227.014	-3.83
227.485	-0.43
227.956	-2.42
228.427	-3.12
228.898	-0.42
229.369	0.38
229.839	-6.52
230.31	-9.93
230.781	0.57
231.252	-7.83
231.722	-8.13
232.193	-2.02
232.664	-4.73
233.135	-2.43
233.605	-13.12
234.076	-8.93
234.546	-8.93
235.017	-1.42
235.487	-2.23
235.958	-5.12
236.428	-8.73
236.899	1.68
237.369	-3.82
237.84	-6.02
238.31	1.77
238.78	-3.23
239.251	-8.52
239.721	-8.62
240.191	-5.82
240.662	-4.62
241.132	-4.93
241.602	-8.13
242.072	-2.02
242.542	4.08
243.013	-6.43
243.483	-2.62
243.953	-4.42
244.423	-4.12
244.893	-9.12
245.363	3.27
245.833	-5.62
246.303	-4.83
246.773	-2.83
247.243	-1.73
247.712	-4.13
248.182	-1.43
248.652	-1.43
249.122	-13.13
249.592	1.07
250.061	-1.93
250.531	7.18
251.001	-10.52
251.471	1.38
251.94	-0.93
252.41	-10.12
252.879	-6.73
253.349	7.27
253.818	2.17
254.288	2.58
254.757	-4.52
255.227	-5.32
255.696	-4.12
256.166	-4.52
256.635	0.08
257.105	-1.73
257.574	-7.03
258.043	-7.02
258.513	-5.83
258.982	-2.32
259.451	-8.73
259.92	-2.33
260.389	-6.23
260.859	7.38
261.328	-1.02
261.797	-1.12
262.266	-2.12
262.735	-3.23
263.204	-2.23
263.673	-8.52
264.142	-2.52
264.611	-12.33
265.08	-5.12
265.549	-12.32
266.018	-4.12
266.487	-6.83
266.955	-10.23
267.424	-3.33
267.893	-7.92
268.362	-6.23
268.83	-16.12
269.299	-1.32
269.768	-3.62
270.236	-6.33
270.705	-8.23
271.174	-6.52
271.642	-7.53
272.111	-6.62
272.579	-7.33
273.048	-6.23
273.516	-7.23
273.985	-5.62
274.453	-5.02
274.922	1.97
275.39	-2.83
275.858	-9.12
276.327	-3.12
276.795	4.67
277.263	-9.93
277.731	3.37
278.2	-7.53
278.668	-9.02
279.136	-3.43
279.604	-9.02
280.072	-7.83
280.54	-4.62
281.008	-2.43
281.477	-3.03
281.945	-1.83
282.413	-3.93
282.881	0.67
283.348	-8.92
283.816	-4.03
284.284	-4.23
284.752	4.37
285.22	1.48
285.688	-3.23
286.156	-2.62
286.623	6.17
287.091	-5.02
287.559	-10.62
288.026	-4.42
288.494	1.57
288.962	-9.43
289.429	-10.33
289.897	1.58
290.364	0.88
290.832	-5.23
291.3	-2.42
291.767	-2.52
292.234	-0.12
292.702	-4.42
293.169	-7.02
293.637	2.08
294.104	-7.12
294.571	-10.43
295.039	-7.83
295.506	-4.02
295.973	-4.93
296.44	-11.62
296.908	-1.73
297.375	-5.12
297.842	-4.62
298.309	-10.62
298.776	-7.02
299.243	-1.93
299.71	-7.33
300.177	-3.33
300.644	0.08
301.111	-4.42
301.578	-3.23
302.045	-11.02
302.512	-2.02
302.979	4.38
303.446	-6.23
303.913	-8.02
304.379	-11.73
304.846	5.98
305.313	-4.23
305.78	-4.23
306.246	-1.23
306.713	-7.53
307.18	-5.52
307.646	-1.33
308.113	-1.23
308.579	-6.53
309.046	-3.23
309.512	-1.23
309.979	-6.83
310.445	-5.83
310.912	-3.33
311.378	0.67
311.845	-3.32
312.311	1.88
312.777	-2.53
313.244	8.48
313.71	9.88
314.176	1.68
314.642	-4.02
315.109	-10.83
315.575	-1.12
316.041	-2.52
316.507	-3.13
316.973	-11.23
317.439	-6.62
317.905	1.27
318.371	-0.43
318.837	-0.82
319.303	-1.43
319.769	-1.02
320.235	-9.62
320.701	0.67
321.167	-5.23
321.633	-8.23
322.099	-5.83
322.564	2.38
323.03	-3.62
323.496	-4.42
323.962	-3.52
324.427	-5.02
324.893	8.07
325.359	-2.53
325.824	-1.33
326.29	-9.33
326.755	-2.23
327.221	-3.93
327.686	-5.83
328.152	-2.23
328.617	-5.83
329.083	0.77
329.548	0.57
330.014	2.08
330.479	-10.63
330.944	-2.43
331.41	-7.62
331.875	-0.32
332.34	-2.12
332.805	-9.43
333.271	-2.62
333.736	-11.12
334.201	-1.02
334.666	-1.03
335.131	-4.33
335.596	-3.33
336.061	-3.62
336.526	-12.13
336.991	-8.02
337.456	5.98
337.921	-2.23
338.386	0.38
338.851	-2.23
339.316	-3.83
339.781	-5.12
340.246	1.58
340.711	-2.53
341.175	-0.73
341.64	-11.62
342.105	-7.23
342.569	-0.33
343.034	-4.03
343.499	2.98
343.963	-2.62
344.428	6.88
344.893	-4.33
345.357	-2.62
345.822	-4.13
346.286	-7.43
346.751	-2.82
347.215	-4.12
347.679	-12.02
348.144	-2.53
348.608	0.77
349.073	-3.43
349.537	-0.62
350.001	-7.62
350.465	0.98
350.93	-5.52
351.394	1.08
351.858	-9.62
352.322	-1.73
352.786	-3.12
353.25	-4.12
353.715	-1.42
354.179	-3.63
354.643	-1.02
355.107	-3.73
355.571	-2.42
356.035	-2.02
356.498	-6.83
356.962	-2.53
357.426	-2.23
357.89	-1.62
358.354	-3.43
358.818	-6.33
359.281	-7.73
359.745	-5.32
360.209	-6.52
360.673	-9.52
361.136	-0.32
361.6	1.57
362.064	-3.02
362.527	-3.73
362.991	-0.43
363.454	-9.12
363.918	-15.43
364.381	-5.83
364.845	-7.12
365.308	-2.73
365.772	-3.53
366.235	-5.93
366.698	-6.33
367.162	-4.03
367.625	-3.23
368.088	-6.03
368.552	-1.43
369.015	-6.73
369.478	3.88
369.941	1.97
370.404	-7.63
370.867	-5.23
371.331	-4.13
371.794	-10.53
372.257	-9.83
372.72	-3.53
373.183	-4.52
373.646	-12.02
374.109	-11.73
374.572	-6.23
375.035	-10.03
375.497	-7.03
375.96	1.27
376.423	-10.43
376.886	-0.73
377.349	-4.73
377.811	-8.42
378.274	-8.42
378.737	-3.93
379.199	-2.52
379.662	-3.12
380.125	-0.82
380.587	-5.52
381.05	-9.02
381.512	-7.03
381.975	-0.12
382.437	-8.52
382.9	-6.12
383.362	-4.52
383.825	-8.73
384.287	-2.23
384.75	-9.23
385.212	-1.33
385.674	1.97
386.136	-3.32
386.599	-1.93
387.061	1.48
387.523	-5.02
387.985	-2.83
388.447	1.57
388.91	-3.62
389.372	3.58
389.834	-6.53
390.296	-7.83
390.758	-3.02
391.22	-5.33
391.682	-1.23
392.144	1.38
392.606	3.47
393.068	-0.32
393.529	2.07
393.991	-10.73
394.453	-4.93
394.915	-0.73
395.377	0.08
395.838	-5.43
396.3	-2.62
396.762	1.18
397.224	-2.43
397.685	-2.33
398.147	-3.12
398.608	-8.02
399.07	-12.42
399.531	-6.62
399.993	-11.62
400.454	0.07
400.916	-6.03
401.377	-9.12
401.839	-2.03
402.3	-10.53
402.762	-1.02
403.223	-0.83
403.684	1.47
404.145	-4.23
404.607	-0.62
405.068	-4.83
405.529	-3.12
405.99	-6.83
406.451	-14.13
406.913	-5.53
407.374	-8.62
407.835	-4.52
408.296	-3.62
408.757	-0.73
409.218	-2.53
409.679	-0.52
410.14	-3.73
410.601	0.77
411.062	4.38
411.522	-3.12
411.983	-13.23
412.444	-12.23
412.905	-2.02
413.366	-9.62
413.826	-3.52
414.287	-4.52
414.748	-2.73
415.208	-10.63
415.669	-4.53
416.13	8.37
416.59	-3.93
417.051	10.38
417.511	-3.03
417.972	-6.52
418.432	-6.92
418.893	-0.12
419.353	-4.12
419.814	-1.53
420.274	-4.63
420.734	-8.83
421.195	3.87
421.655	-10.32
422.115	-3.53
422.576	-1.43
423.036	-2.83
423.496	-4.73
423.956	-3.23
424.416	-3.63
424.876	-2.52
425.336	-2.93
425.797	-6.73
426.257	3.67
426.717	-6.73
427.177	2.17
427.637	-5.02
428.097	-3.53
428.556	-10.62
429.016	-4.03
429.476	-11.93
429.936	-4.12
430.396	-6.83
430.856	-12.03
431.315	5.67
431.775	2.67
432.235	0.67
432.694	-5.52
433.154	-2.52
433.614	-1.53
434.073	-5.02
434.533	-2.73
434.993	-8.83
435.452	-3.03
435.912	-9.53
436.371	-7.12
436.83	-5.23
437.29	4.47
437.749	-0.02
438.209	-5.53
438.668	-3.23
439.127	-7.02
439.587	2.18
440.046	-6.73
440.505	-6.82
440.964	-5.73
441.424	-11.62
441.883	-6.52
442.342	-0.12
442.801	-6.12
443.26	-5.73
443.719	1.77
444.178	-10.53
444.637	-16.42
445.096	-4.02
445.555	-2.33
446.014	0.98
446.473	-3.42
446.932	-1.43
447.391	-6.43
447.849	-7.23
448.308	-11.92
448.767	-9.93
449.226	-3.62
449.685	2.88
450.143	-0.03
450.602	-10.43
451.061	-8.33
451.519	-5.92
451.978	-8.62
452.436	-8.33
452.895	-7.23
453.353	-2.62
453.812	-1.92
454.27	0.97
454.729	-0.12
455.187	-7.43
455.646	-5.62
456.104	-4.12
456.562	-3.12
457.021	-4.03
457.479	-1.33
457.937	-2.62
458.395	-6.52
458.854	-6.52
459.312	-1.52
459.77	-13.33
460.228	-12.43
460.686	-13.93
461.144	6.88
461.602	-1.52
462.06	-4.23
462.518	-6.62
462.976	-4.13
463.434	-7.42
463.892	-6.73
464.35	-4.43
464.808	5.38
465.266	-7.92
465.724	-6.32
466.181	2.88
466.639	-5.62
467.097	0.27
467.555	-0.92
468.012	0.47
468.47	-2.62
468.928	3.17
469.385	1.27
469.843	0.38
470.3	6.48
470.758	-9.23
471.215	-10.62
471.673	-2.53
472.13	-5.23
472.588	4.27
473.045	2.68
473.503	-0.02
473.96	-9.23
474.417	-8.03
474.875	-4.93
475.332	-0.92
475.789	-1.73
476.246	3.17
476.704	-5.52
477.161	-4.23
477.618	-12.23
478.075	-2.42
478.532	1.77
478.989	-9.52
479.446	1.27
479.903	11.77
480.36	2.97
480.817	-8.13
481.274	3.07
481.731	4.48
482.188	-10.02
482.645	3.38
483.102	-6.33
483.558	-1.23
484.015	-0.62
484.472	-4.52
484.929	-4.12
485.385	-8.43
485.842	-1.73
486.299	-9.23
486.755	-3.63
487.212	-0.52
487.668	-5.53
488.125	1.97
488.582	0.68
489.038	-5.12
489.494	-11.33
489.951	-3.02
490.407	-9.02
490.864	-8.62
491.32	-3.23
491.776	2.98
492.233	-2.33
492.689	-10.02
493.145	-8.23
493.602	-4.03
494.058	-0.23
494.514	-6.73
494.97	3.48
495.426	-4.33
495.882	-3.83
496.338	1.98
496.794	1.27
497.251	-11.62
497.707	3.68
498.163	-5.93
498.618	-2.93
499.074	2.27
499.53	-4.62
499.986	-4.83
500.442	-6.62
500.898	-3.62
501.354	-12.73
501.809	1.37
502.265	-7.23
502.721	1.57
503.177	1.98
503.632	-4.12
504.088	1.57
504.543	-5.62
504.999	-5.83
505.455	-8.63
505.91	-8.42
506.366	-6.53
506.821	-7.43
507.277	-6.53
507.732	-6.63
508.187	-2.43
508.643	-9.12
509.098	-4.62
509.553	-1.53
510.009	-0.23
510.464	-11.83
510.919	-1.62
511.375	-10.23
511.83	-1.53
512.285	-2.73
512.74	1.48
513.195	1.58
513.65	-2.12
514.105	-5.63
514.56	-0.53
515.015	0.98
515.47	5.67
515.925	-7.42
516.38	2.47
516.835	4.17
517.29	-3.62
517.745	-1.92
518.2	-10.93
518.655	-6.93
519.109	-7.73
519.564	1.67
520.019	-8.03
520.474	-10.62
520.928	-8.12
521.383	-1.83
521.838	-4.93
522.292	-0.12
522.747	1.48
523.201	4.97
523.656	-1.83
524.11	-3.23
524.565	-7.02
525.019	-10.83
525.474	0.07
525.928	-4.32
526.382	-9.73
526.837	-6.83
527.291	0.57
527.745	-2.73
528.2	-4.52
528.654	-1.62
529.108	-9.12
529.562	-8.83
530.016	-12.73
530.47	-3.93
530.925	1.07
531.379	-7.83
531.833	-8.73
532.287	-5.73
532.741	-10.52
533.195	-5.23
533.649	-1.53
534.103	4.08
534.556	-4.63
535.01	-8.43
535.464	-9.33
535.918	-5.32
536.372	0.48
536.826	-2.02
537.279	0.17
537.733	-3.52
538.187	-9.33
538.64	-11.93
539.094	-7.42
539.548	-7.23
540.001	-12.93
540.455	-8.63
540.908	2.67
541.362	-4.02
541.815	-6.23
542.269	-1.13
542.722	-4.83
543.175	-8.73
543.629	-11.03
544.082	-3.33
544.536	-4.12
544.989	-7.42
545.442	-4.73
545.895	-0.73
546.349	-9.12
546.802	-7.73
547.255	-4.83
547.708	-6.02
548.161	-6.23
548.614	-2.23
549.067	0.38
549.52	-6.42
549.973	-2.23
550.426	-4.03
550.879	-11.03
551.332	-3.62
551.785	5.07
552.238	-4.93
552.691	-1.92
553.144	-0.93
553.596	-0.52
554.049	-8.33
554.502	-5.62
554.955	-3.33
555.407	-7.03
555.86	0.97
556.313	0.27
556.765	-3.93
557.218	-4.43
557.67	0.37
558.123	0.27
558.576	-11.93
559.028	0.18
559.48	-8.12
559.933	-1.62
560.385	-7.53
560.838	-6.83
561.29	-4.12
561.742	-3.23
562.195	-9.52
562.647	-6.82
563.099	1.67
563.551	-1.62
564.004	1.27
564.456	-2.12
564.908	-2.83
565.36	1.57
565.812	-2.33
566.264	-5.52
566.716	3.58
567.168	-3.33
567.62	-2.33
568.072	-0.02
568.524	-4.82
568.976	-1.63
569.428	-7.52
569.88	-3.53
570.332	-9.32
570.784	-3.73
571.235	-3.52
571.687	-3.92
572.139	0.27
572.59	-2.23
573.042	-1.03
573.494	-6.52
573.945	-0.03
574.397	-7.42
574.849	0.57
575.3	-0.23
575.752	-9.53
576.203	-2.53
576.655	1.37
577.106	-6.73
577.557	-7.12
578.009	1.08
578.46	-9.83
578.912	-5.73
579.363	-8.33
579.814	-1.23
580.265	-9.23
580.717	-7.03
581.168	-3.93
581.619	-2.32
582.07	-1.02
582.521	-6.83
582.972	-10.23
583.423	-4.83
583.875	-3.83
584.326	-8.13
584.777	-5.52
585.227	2.47
585.678	-8.03
586.129	-6.73
586.58	1.58
587.031	-1.23
587.482	-1.13
587.933	-2.42
588.384	-5.73
588.834	-8.23
589.285	-7.33
589.736	-3.03
590.186	-6.93
590.637	-3.73
591.088	0.68
591.538	-3.83
591.989	-0.02
592.439	-1.12
592.89	-4.43
593.34	-3.53
593.791	-5.03
594.241	-3.93
594.692	-3.12
595.142	-4.23
595.593	-4.62
596.043	-3.23
596.493	-4.73
596.943	-7.12
597.394	-0.42
597.844	-3.83
598.294	-7.73
598.744	-0.43
599.195	-3.12
599.645	-4.42
600.095	-9.93
600.545	1.38
600.995	-4.12
601.445	0.67
601.895	-7.73
602.345	-10.42
602.795	-3.73
603.245	-5.73
603.695	-6.02
604.145	-6.52
604.594	-7.12
605.044	-6.23
605.494	-6.33
605.944	-10.62
606.393	-1.62
606.843	-3.03
607.293	5.08
607.743	-1.83
608.192	-7.23
608.642	-0.83
609.091	-4.52
609.541	2.57
609.99	-5.23
610.44	2.38
610.889	-4.32
611.339	-2.43
611.788	-9.02
612.238	-5.62
612.687	7.57
613.136	-1.73
613.586	2.67
614.035	-6.12
614.484	-10.03
614.933	-13.03
615.383	-1.33
615.832	1.38
616.281	-4.42
616.73	-0.02
617.179	-4.52
617.628	3.07
618.077	-3.33
618.526	-5.93
618.975	-4.62
619.424	-0.63
619.873	-10.42
620.322	4.27
620.771	-5.73
621.22	-0.13
621.669	-9.73
622.118	-4.93
622.567	2.08
623.015	-13.33
623.464	-4.83
623.913	-0.93
624.361	-5.43
624.81	-3.12
625.259	-9.23
625.707	2.27
626.156	-4.73
626.604	-2.53
627.053	-9.03
627.501	-8.23
627.95	-3.62
628.398	-7.23
628.847	-8.62
629.295	-9.52
629.744	-7.73
630.192	2.67
630.64	-2.53
631.089	-8.83
631.537	-2.02
631.985	-2.73
632.433	3.38
632.881	-4.73
633.33	-3.33
633.778	-6.23
634.226	-10.52
634.674	0.77
635.122	-6.83
635.57	-1.73
636.018	-6.03
636.466	3.67
636.914	-5.23
637.362	0.18
637.81	2.77
638.258	-2.73
638.705	-5.33
639.153	-0.33
639.601	-10.73
640.049	-11.53
640.497	-3.62
640.944	5.17
641.392	-7.62
641.84	-2.02
642.287	-9.73
642.735	-9.93
643.182	-1.92
643.63	-5.53
644.078	-10.23
644.525	-3.63
644.973	-5.73
645.42	-5.02
645.867	-9.62
646.315	0.27
646.762	-7.82
647.21	-3.23
647.657	-8.33
648.104	1.27
648.551	-3.62
648.999	-5.23
649.446	-5.23
649.893	-10.02
650.34	-2.12
650.787	-9.62
651.234	0.67
651.682	-8.12
652.129	-3.62
652.576	-5.83
653.023	4.38
653.47	1.27
653.917	-7.13
654.363	4.08
654.81	-7.02
655.257	-8.23
655.704	-5.82
656.151	-6.83
656.598	-8.03
657.044	-5.53
657.491	0.57
657.938	-13.52
658.385	-0.62
658.831	-0.02
659.278	6.88
659.724	-7.73
660.171	-0.03
660.618	5.67
661.064	2.68
661.511	1.17
661.957	-5.02
662.404	-5.23
662.85	2.08
663.296	-2.33
663.743	-5.53
664.189	-1.83
664.635	-3.53
665.082	-7.43
665.528	-5.73
665.974	-6.03
666.42	-3.73
666.867	-1.93
667.313	-5.92
667.759	-4.62
668.205	-1.52
668.651	-0.52
669.097	-1.83
669.543	-9.23
669.989	-10.12
670.435	-0.62
670.881	-6.52
671.327	-4.62
671.773	-7.43
672.219	-1.93
672.665	0.27
673.11	-10.33
673.556	-6.73
674.002	-5.02
674.448	-8.23
674.893	-2.42
675.339	-2.62
675.785	-5.33
676.23	-2.12
676.676	-6.02
677.122	-4.83
677.567	-1.83
678.013	-2.33
678.458	-8.02
678.904	-2.32
679.349	-8.33
679.794	0.88
680.24	-5.02
680.685	-6.03
681.131	-3.73
681.576	2.07
682.021	1.17
682.466	-6.43
682.912	-10.43
683.357	-13.12
683.802	0.08
684.247	2.17
684.692	-0.83
685.137	-9.73
685.583	6.27
686.028	-6.23
686.473	-0.23
686.918	-9.33
687.363	2.27
687.807	-4.83
688.252	-4.12
688.697	5.17
689.142	-4.12
689.587	-6.93
690.032	-11.33
690.477	-6.62
690.921	-7.43
691.366	0.27
691.811	-9.43
692.255	1.27
692.7	1.58
693.145	-4.32
693.589	-3.62
694.034	-3.33
694.478	-3.62
694.923	2.88
695.367	-2.53
695.812	-5.43
696.256	-1.43
696.701	-7.43
697.145	0.98
697.59	-3.83
698.034	-5.13
698.478	-0.32
698.922	-6.42
699.367	-2.33
699.811	-0.62
700.255	-5.62
700.699	-2.42
701.143	-7.73
701.588	-6.12
702.032	-3.23
702.476	-6.02
702.92	-2.32
703.364	-1.73
703.808	-2.53
704.252	1.38
704.696	-5.23
705.14	-3.42
705.584	-6.23
706.027	-1.43
706.471	-4.93
706.915	-3.23
707.359	-2.12
707.803	-10.93
708.246	-8.12
708.69	4.67
709.134	5.17
709.577	-1.23
710.021	4.27
710.465	-7.12
710.908	-3.23
711.352	-4.12
711.795	-4.73
712.239	0.27
712.682	-8.33
713.126	-0.33
713.569	-5.12
714.012	-4.62
714.456	-6.12
714.899	-5.83
715.342	-7.42
715.786	-12.62
716.229	-0.12
716.672	8.47
717.115	1.08
717.558	-5.82
718.002	-0.83
718.445	-5.33
718.888	1.27
719.331	-7.73
719.774	-3.43
720.217	2.47
720.66	-2.33
721.103	-5.02
721.546	-3.32
721.989	-2.73
722.432	-15.52
722.874	-4.33
723.317	-10.73
723.76	-15.12
724.203	-4.43
724.645	1.98
725.088	-0.73
725.531	-11.33
725.974	-14.23
726.416	-6.53
726.859	0.07
727.301	-7.83
727.744	0.58
728.187	-6.32
728.629	-6.93
729.071	-4.33
729.514	-5.12
729.956	-1.12
730.399	-3.73
730.841	-1.83
731.283	-8.02
731.726	-5.32
732.168	-4.23
732.61	-6.53
733.053	-1.02
733.495	-5.92
733.937	-6.32
734.379	-5.03
734.821	-7.12
735.263	-8.23
735.705	-3.12
736.148	-7.33
736.59	2.97
737.032	-7.63
737.474	-2.03
737.916	-4.62
738.357	-3.62
738.799	-4.93
739.241	-6.12
739.683	-2.43
740.125	-6.73
740.567	-8.23
741.008	3.67
741.45	8.38
741.892	4.58
742.334	-1.42
742.775	-10.43
743.217	-9.43
743.658	-9.12
744.1	-2.73
744.542	-11.52
744.983	-3.73
745.425	-8.33
745.866	0.47
746.307	3.27
746.749	-3.42
747.19	-3.32
747.632	-0.92
748.073	-14.02
748.514	3.27
748.956	-9.83
749.397	-3.93
749.838	1.27
750.279	-12.93
750.72	-3.13
751.162	-2.33
751.603	-10.02
752.044	-2.62
752.485	-11.42
752.926	-7.52
753.367	-4.63
753.808	-1.73
754.249	-4.73
754.69	-0.83
755.131	-3.02
755.572	-8.12
756.013	-5.62
756.453	-4.52
756.894	-4.62
757.335	-3.92
757.776	-3.12
758.216	-7.53
758.657	-6.02
759.098	-13.12
759.538	-7.02
759.979	-8.83
760.42	-10.42
760.86	-14.23
761.301	-9.92
761.741	-1.73
762.182	-6.83
762.622	-5.73
763.063	-5.73
763.503	-3.23
763.943	-8.62
764.384	-1.33
764.824	0.68
765.264	-5.62
765.705	-5.12
766.145	-11.93
766.585	-7.62
767.025	-10.73
767.465	-9.53
767.906	0.27
768.346	3.98
768.786	-5.83
769.226	-0.92
769.666	6.27
770.106	-6.33
770.546	-2.62
770.986	-12.02
771.426	-11.23
771.866	-6.92
772.306	-5.62
772.745	-8.62
773.185	-7.12
773.625	-0.93
774.065	-5.83
774.505	1.87
774.944	-5.52
775.384	-2.83
775.824	-7.82
776.263	-4.33
776.703	-12.93
777.142	-6.33
777.582	-0.83
778.021	-3.02
778.461	-2.02
778.9	-1.23
779.34	3.18
779.779	-5.23
780.219	-11.42
780.658	-13.12
781.097	-4.52
781.537	0.98
781.976	-7.73
782.415	-7.53
782.855	-2.62
783.294	-7.52
783.733	-6.43
784.172	0.77
784.611	-10.93
785.05	-2.23
785.489	-3.42
785.928	2.38
786.367	-1.02
786.806	-11.03
787.245	-3.53
787.684	-10.62
788.123	-1.83
788.562	-7.52
789.001	-11.02
789.44	-7.62
789.879	0.07
790.317	-7.33
790.756	0.58
791.195	-3.42
791.634	-6.32
