Data from 20171114-ORNL-Ar_H_NY_Subt18_08-03-56-057.txt Node
Date: Tue Nov 14 08:03:56 EST 2017
User: Ender
Spectrometer: HR+D1039
Trigger mode: 0
Integration Time (sec): 2.730000E-2
Scans to average: 10
Electric dark correction enabled: true
Nonlinearity correction enabled: false
Boxcar width: 0
XAxis mode: Wavelengths
Number of Pixels in Spectrum: 2048
>>>>>Begin Spectral Data<<<<<
187.836	-4.9
188.309	-4.9
188.782	-4.9
189.255	1.1
189.728	1.4
190.201	4.5
190.674	0
191.147	2
191.619	-0.7
192.092	-0.1
192.565	7.7
193.038	-2.4
193.511	-0.1
193.984	-2.5
194.456	-3.4
194.929	0.4
195.402	-1.1
195.874	-1.9
196.347	0.5
196.82	0.7
197.292	5.9
197.765	-3.4
198.237	-4.8
198.71	4.7
199.182	-0.8
199.655	8.7
200.127	8.9
200.6	-1.8
201.072	1.7
201.544	-2.4
202.017	2
202.489	4.9
202.961	0.9
203.433	-5.9
203.906	1.6
204.378	-5.5
204.85	-1.3
205.322	-12.2
205.794	-3.7
206.266	-4.1
206.739	-7.6
207.211	6.2
207.683	-1.7
208.155	-4.4
208.627	-8.2
209.099	-7.5
209.57	-6.3
210.042	-7.2
210.514	-2.7
210.986	3.2
211.458	-4.4
211.93	-3.9
212.402	6.1
212.873	-1.4
213.345	-7.3
213.817	-12.2
214.288	-5.7
214.76	-7.5
215.232	2.9
215.703	-1.4
216.175	-4.1
216.646	-3.8
217.118	-2.1
217.589	-6.5
218.061	-3.3
218.532	-8.7
219.004	-1.1
219.475	-3.5
219.946	0.1
220.418	-8.4
220.889	5.2
221.36	1.5
221.832	-5.4
222.303	-4.9
222.774	3.2
223.245	-10.1
223.717	-5.7
224.188	-9.7
224.659	-9.8
225.13	-6.7
225.601	0.7
226.072	2.5
226.543	5.2
227.014	-1.5
227.485	2.1
227.956	-8.8
228.427	-1.1
228.898	-3.5
229.369	5
229.839	-5.5
230.31	-9.5
230.781	0.6
231.252	-0.8
231.722	-4.6
232.193	2.8
232.664	-4.2
233.135	-5
233.605	4.3
234.076	-9.8
234.546	3.5
235.017	8.6
235.487	-3.8
235.958	-3.6
236.428	-8.8
236.899	-2.9
237.369	-0.1
237.84	-6.3
238.31	-2.5
238.78	-5.3
239.251	-5.2
239.721	-1.5
240.191	-2.7
240.662	-6
241.132	-0.1
241.602	0.2
242.072	-4.3
242.542	2.2
243.013	-5
243.483	-0.3
243.953	2.3
244.423	-1.9
244.893	-5.5
245.363	4.3
245.833	-4.4
246.303	-6
246.773	5.1
247.243	3.7
247.712	1.2
248.182	3.6
248.652	3.2
249.122	-12.2
249.592	-1.7
250.061	5.8
250.531	7.3
251.001	-2.6
251.471	7.6
251.94	9.2
252.41	-0.6
252.879	1.1
253.349	9.5
253.818	7
254.288	4.7
254.757	1.2
255.227	-4.3
255.696	0.6
256.166	3.9
256.635	2.1
257.105	0.1
257.574	-2.3
258.043	0
258.513	1.4
258.982	6.3
259.451	-0.3
259.92	0.9
260.389	-1
260.859	13.4
261.328	3.2
261.797	-1.7
262.266	-2.8
262.735	7.9
263.204	1.9
263.673	-2.2
264.142	5.8
264.611	-7.8
265.08	1.6
265.549	-1.8
266.018	3.6
266.487	-4.3
266.955	1.2
267.424	3.6
267.893	4.2
268.362	3.2
268.83	-1.7
269.299	7.1
269.768	0.9
270.236	4.8
270.705	-3.2
271.174	5
271.642	4
272.111	3.1
272.579	1.1
273.048	0.3
273.516	1.3
273.985	6.6
274.453	9.6
274.922	11.4
275.39	3.9
275.858	1.8
276.327	4.7
276.795	11.9
277.263	2.8
277.731	9.9
278.2	5.5
278.668	7
279.136	10.3
279.604	0.4
280.072	8.8
280.54	6.9
281.008	6.9
281.477	8.7
281.945	8.8
282.413	6.7
282.881	13.9
283.348	3.3
283.816	7.2
284.284	5.4
284.752	19
285.22	7.3
285.688	6.5
286.156	1.8
286.623	13.9
287.091	6.4
287.559	8.3
288.026	7.5
288.494	4.1
288.962	-3.3
289.429	7.3
289.897	16.1
290.364	10.7
290.832	8.7
291.3	3
291.767	5.7
292.234	13.5
292.702	12
293.169	14.9
293.637	14.2
294.104	10.4
294.571	4.7
295.039	7.8
295.506	9
295.973	12
296.44	9.8
296.908	10.5
297.375	9.9
297.842	10.6
298.309	12.1
298.776	9.7
299.243	14.9
299.71	9.4
300.177	18.3
300.644	17.6
301.111	6.2
301.578	6.3
302.045	17.5
302.512	17.7
302.979	18.3
303.446	14.4
303.913	12.7
304.379	9.3
304.846	17
305.313	13.3
305.78	16.5
306.246	18.7
306.713	18.8
307.18	14.4
307.646	22.9
308.113	22.1
308.579	18.8
309.046	18.4
309.512	15.7
309.979	11.9
310.445	17.2
310.912	22.1
311.378	26.5
311.845	22.2
312.311	26.1
312.777	18.9
313.244	21.5
313.71	33
314.176	19.5
314.642	22.6
315.109	23
315.575	25.5
316.041	34.2
316.507	21
316.973	28.3
317.439	19.6
317.905	23.9
318.371	26.6
318.837	26.4
319.303	23.8
319.769	27.3
320.235	26.6
320.701	23.1
321.167	27.8
321.633	24.3
322.099	30.9
322.564	33.8
323.03	27.7
323.496	32.7
323.962	32
324.427	25.2
324.893	32.7
325.359	30.2
325.824	30.4
326.29	25.1
326.755	29.4
327.221	33.1
327.686	32.1
328.152	40
328.617	30.9
329.083	36
329.548	42.6
330.014	39.8
330.479	34.5
330.944	36.3
331.41	31.1
331.875	34.7
332.34	28.6
332.805	30.1
333.271	37.8
333.736	28.3
334.201	45.3
334.666	44.9
335.131	42
335.596	38.6
336.061	40.1
336.526	32.9
336.991	38
337.456	49
337.921	40.8
338.386	32.6
338.851	33.4
339.316	39.5
339.781	36.7
340.246	43.7
340.711	42.6
341.175	44.4
341.64	36
342.105	48.1
342.569	48.6
343.034	49.6
343.499	43
343.963	42.2
344.428	52.2
344.893	54
345.357	45.7
345.822	53.7
346.286	53
346.751	61.8
347.215	58.1
347.679	55.1
348.144	75.2
348.608	70.2
349.073	55.3
349.537	57.7
350.001	70
350.465	72.5
350.93	59.9
351.394	68.6
351.858	59.5
352.322	75.8
352.786	75.9
353.25	77.7
353.715	89.3
354.179	71.8
354.643	94.4
355.107	94.4
355.571	89.5
356.035	82.9
356.498	93.3
356.962	91.4
357.426	97.4
357.89	86.8
358.354	78.4
358.818	74.3
359.281	70.2
359.745	68.5
360.209	68.9
360.673	67.4
361.136	67.2
361.6	70.5
362.064	76.2
362.527	87.6
362.991	81.9
363.454	73.8
363.918	72.3
364.381	73.3
364.845	71
365.308	81.1
365.772	76.6
366.235	81
366.698	76.8
367.162	74.8
367.625	74
368.088	79.5
368.552	80.5
369.015	81.3
369.478	76.2
369.941	84
370.404	79.3
370.867	81.2
371.331	95.4
371.794	94.8
372.257	87.4
372.72	95.1
373.183	96.6
373.646	85.7
374.109	93.6
374.572	91.1
375.035	93.6
375.497	89.4
375.96	93.7
376.423	91.8
376.886	103.1
377.349	95.5
377.811	92.7
378.274	95.6
378.737	94.7
379.199	94.7
379.662	110.7
380.125	100.9
380.587	95.1
381.05	88.6
381.512	103.8
381.975	119.6
382.437	107.7
382.9	104.7
383.362	110
383.825	114.1
384.287	116.6
384.75	106.1
385.212	119.3
385.674	125.2
386.136	125.3
386.599	112.1
387.061	110.9
387.523	116.4
387.985	112.2
388.447	124.5
388.91	111.7
389.372	122.9
389.834	117.9
390.296	124.5
390.758	126.8
391.22	128.7
391.682	131.3
392.144	148
392.606	138.1
393.068	133.2
393.529	142.2
393.991	137.1
394.453	121.5
394.915	125.9
395.377	131.2
395.838	134.6
396.3	134.7
396.762	126.6
397.224	130
397.685	124.9
398.147	125.3
398.608	126.7
399.07	120
399.531	130.3
399.993	136.5
400.454	150.4
400.916	143.8
401.377	143.5
401.839	139.8
402.3	142.9
402.762	152.8
403.223	166.9
403.684	159.1
404.145	153.5
404.607	146.7
405.068	152.7
405.529	154.9
405.99	161.4
406.451	155.2
406.913	168.8
407.374	154.8
407.835	153.2
408.296	164.2
408.757	161.1
409.218	169.2
409.679	166
410.14	169
410.601	162.6
411.062	173.8
411.522	171.1
411.983	170.1
412.444	168.7
412.905	174.4
413.366	174.9
413.826	193.6
414.287	212.7
414.748	262.8
415.208	244.9
415.669	214.1
416.13	205.8
416.59	198.5
417.051	218.2
417.511	213.8
417.972	236.7
418.432	252.1
418.893	294.1
419.353	252.6
419.814	199.7
420.274	179.3
420.734	177.7
421.195	190.1
421.655	180.9
422.115	187.8
422.576	186.5
423.036	194
423.496	204.6
423.956	209.2
424.416	224.8
424.876	261.2
425.336	251.5
425.797	254.2
426.257	242.8
426.717	219.7
427.177	222.8
427.637	212.2
428.097	221.2
428.556	231.8
429.016	258.7
429.476	244.4
429.936	257
430.396	264.7
430.856	268.3
431.315	288
431.775	308.7
432.235	350.2
432.694	329.2
433.154	329.2
433.614	345.1
434.073	301.5
434.533	266.7
434.993	252.1
435.452	256.8
435.912	262.6
436.371	253.6
436.83	254.3
437.29	240.4
437.749	227.5
438.209	233
438.668	245.8
439.127	259.4
439.587	243.1
440.046	224.2
440.505	239.9
440.964	252.2
441.424	274.9
441.883	272.8
442.342	234.8
442.801	214.8
443.26	206.6
443.719	211.1
444.178	217.6
444.637	209.7
445.096	215.4
445.555	221.1
446.014	217.4
446.473	218.1
446.932	213
447.391	217.4
447.849	216.4
448.308	208.6
448.767	213.3
449.226	229.8
449.685	231.3
450.143	237.2
450.602	232.4
451.061	221.8
451.519	232.4
451.978	219.4
452.436	222.3
452.895	225.5
453.353	232.1
453.812	226
454.27	233.1
454.729	230.9
455.187	233.7
455.646	224.3
456.104	228.6
456.562	238.4
457.021	243.9
457.479	244.2
457.937	251.1
458.395	249
458.854	239.3
459.312	242.4
459.77	245.9
460.228	241.8
460.686	237.7
461.144	241.5
461.602	233.2
462.06	234.5
462.518	251.2
462.976	238
463.434	251.4
463.892	250.1
464.35	254.7
464.808	275.3
465.266	255.3
465.724	265.9
466.181	265.5
466.639	265.9
467.097	274.8
467.555	280.3
468.012	284.6
468.47	283.4
468.928	298.3
469.385	320.8
469.843	323.6
470.3	326.9
470.758	330.3
471.215	339.9
471.673	361.6
472.13	363.3
472.588	384.5
473.045	343.1
473.503	355.3
473.96	367.1
474.417	376.5
474.875	404.6
475.332	430.7
475.789	425.2
476.246	435.4
476.704	440.2
477.161	463.3
477.618	475.6
478.075	505.3
478.532	554.5
478.989	596.7
479.446	672.6
479.903	670.6
480.36	714.3
480.817	746.7
481.274	836.4
481.731	923.4
482.188	984.3
482.645	1106.9
483.102	1188.2
483.558	1286.8
484.015	1324.9
484.472	1311
484.929	1273.4
485.385	1240.8
485.842	1208.5
486.299	1167.5
486.755	1095.4
487.212	952.4
487.668	828.6
488.125	772.4
488.582	709.9
489.038	670.8
489.494	643.5
489.951	621.9
490.407	612.6
490.864	593.2
491.32	592.2
491.776	586.1
492.233	581.4
492.689	555.2
493.145	549.8
493.602	548.7
494.058	556.6
494.514	552.5
494.97	565.9
495.426	572.6
495.882	571.3
496.338	552
496.794	567.8
497.251	561.6
497.707	567.2
498.163	568.9
498.618	578.7
499.074	580.2
499.53	588.7
499.986	594.8
500.442	581.1
500.898	561.2
501.354	560.6
501.809	567.1
502.265	557.4
502.721	565.8
503.177	573.3
503.632	582.5
504.088	583.1
504.543	599.2
504.999	609.7
505.455	591.7
505.91	582.3
506.366	582.4
506.821	572.2
507.277	575.1
507.732	580.5
508.187	573.9
508.643	584.2
509.098	581.5
509.553	600.5
510.009	607.5
510.464	610.5
510.919	618.3
511.375	620.2
511.83	640.5
512.285	645.5
512.74	664.3
513.195	686.1
513.65	678.4
514.105	676.6
514.56	685.3
515.015	700.8
515.47	716.7
515.925	698.2
516.38	703.2
516.835	702.5
517.29	701.6
517.745	701.1
518.2	686.6
518.655	664.6
519.109	662
519.564	661
520.019	646.8
520.474	644.6
520.928	644
521.383	632.5
521.838	630.5
522.292	629.8
522.747	625.8
523.201	624.8
523.656	617.1
524.11	615.6
524.565	623.7
525.019	612.2
525.474	613.1
525.928	614.5
526.382	616.4
526.837	608.7
527.291	622.6
527.745	610.8
528.2	600.6
528.654	605.1
529.108	604.1
529.562	608.1
530.016	600.1
530.47	606.4
530.925	600.3
531.379	608.2
531.833	600.7
532.287	609.7
532.741	605.8
533.195	614
533.649	622.7
534.103	621.3
534.556	608.2
535.01	614.1
535.464	603.1
535.918	612.9
536.372	621.5
536.826	626.4
537.279	605.6
537.733	613.8
538.187	623.6
538.64	614.6
539.094	620.4
539.548	628.3
540.001	622
540.455	624.7
540.908	638.2
541.362	627.9
541.815	645.2
542.269	655.3
542.722	656.7
543.175	662.9
543.629	667.1
544.082	678.1
544.536	679
544.989	671.8
545.442	679.4
545.895	676.8
546.349	678.8
546.802	672.3
547.255	683.3
547.708	682.8
548.161	697.4
548.614	702.6
549.067	705.1
549.52	697.1
549.973	693.3
550.426	687.5
550.879	669.7
551.332	671.6
551.785	680
552.238	683.6
552.691	687.5
553.144	709.8
553.596	705.4
554.049	727.1
554.502	750.9
554.955	764.5
555.407	763.7
555.86	760.1
556.313	749.9
556.765	739.5
557.218	740.1
557.67	727.3
558.123	725.6
558.576	732.7
559.028	732.3
559.48	726.1
559.933	732.4
560.385	689.6
560.838	671
561.29	658.3
561.742	654.2
562.195	644.9
562.647	639.5
563.099	645
563.551	646.4
564.004	650.7
564.456	644.7
564.908	631.4
565.36	608.6
565.812	597.4
566.264	591.1
566.716	593.9
567.168	581.8
567.62	584.2
568.072	577.7
568.524	561.8
568.976	563.3
569.428	553.2
569.88	552.5
570.332	557.5
570.784	560
571.235	558.8
571.687	566.5
572.139	574.4
572.59	577
573.042	581
573.494	569.2
573.945	573.2
574.397	561.3
574.849	562.5
575.3	557
575.752	556.1
576.203	541.4
576.655	547.7
577.106	544.1
577.557	537.5
578.009	541.2
578.46	537.9
578.912	527.9
579.363	535.4
579.814	535.7
580.265	531.8
580.717	535.3
581.168	536.2
581.619	542.7
582.07	538.2
582.521	528.1
582.972	533.3
583.423	534.8
583.875	540.9
584.326	543.1
584.777	545.1
585.227	565.6
585.678	592.9
586.129	607.8
586.58	623.7
587.031	635.2
587.482	672.6
587.933	704.2
588.384	680.1
588.834	627.8
589.285	607
589.736	610.6
590.186	605.9
590.637	599.9
591.088	581.7
591.538	579.8
591.989	582.6
592.439	569.5
592.89	557
593.34	551.7
593.791	555.9
594.241	540.3
594.692	552.1
595.142	545.5
595.593	540.1
596.043	541.6
596.493	543.6
596.943	546.3
597.394	555.8
597.844	548.9
598.294	567.8
598.744	577.3
599.195	602.4
599.645	635.5
600.095	659.3
600.545	712.7
600.995	745.3
601.445	782.9
601.895	836.4
602.345	881.3
602.795	865.2
603.245	829.6
603.695	786.7
604.145	744.4
604.594	715.7
605.044	670.7
605.494	614.1
605.944	583.7
606.393	578.2
606.843	554.7
607.293	558.9
607.743	558.5
608.192	572
608.642	570.9
609.091	580.4
609.541	578.5
609.99	569.8
610.44	572.4
610.889	548.2
611.339	528.8
611.788	514
612.238	526.8
612.687	534.5
613.136	523.5
613.586	538.3
614.035	525.4
614.484	540.4
614.933	535.5
615.383	536.9
615.832	526.2
616.281	524.1
616.73	509.6
617.179	504.3
617.628	485.2
618.077	482.7
618.526	469.8
618.975	465.2
619.424	472.1
619.873	460.4
620.322	465
620.771	453.8
621.22	459.3
621.669	445.9
622.118	438.6
622.567	430.1
623.015	421.8
623.464	426.9
623.913	418.9
624.361	414.9
624.81	419.5
625.259	416.5
625.707	417
626.156	425.8
626.604	427.5
627.053	417.8
627.501	426.5
627.95	426.1
628.398	429.5
628.847	424.2
629.295	411.7
629.744	422.2
630.192	411.3
630.64	415.5
631.089	399.7
631.537	400.9
631.985	392.2
632.433	382.7
632.881	384.7
633.33	389.9
633.778	387.8
634.226	385.4
634.674	399.9
635.122	398.7
635.57	404.3
636.018	414
636.466	411.6
636.914	412.7
637.362	427.7
637.81	435.3
638.258	426.6
638.705	420.4
639.153	447.3
639.601	456
640.049	470.7
640.497	492.5
640.944	515
641.392	471.2
641.84	447.5
642.287	428.9
642.735	403.3
643.182	409.4
643.63	416
644.078	413.6
644.525	413.9
644.973	420.6
645.42	424.1
645.867	442.9
646.315	458.9
646.762	467.1
647.21	491
647.657	513.3
648.104	529.6
648.551	539.4
648.999	589.3
649.446	639.1
649.893	684.6
650.34	777.5
650.787	922.8
651.234	1120.9
651.682	1433.9
652.129	1929.7
652.576	2718.3
653.023	3978.8
653.47	5536.6
653.917	6978.7
654.363	8222.9
654.81	9258.2
655.257	8822.2
655.704	5853.7
656.151	3465.9
656.598	2271.3
657.044	1610
657.491	1253.5
657.938	1006.4
658.385	840.7
658.831	743.4
659.278	668.4
659.724	595
660.171	550.2
660.618	502.5
661.064	482.3
661.511	449.9
661.957	443.4
662.404	433.2
662.85	432.3
663.296	423.8
663.743	400.7
664.189	384.5
664.635	384.5
665.082	371.7
665.528	370.5
665.974	366.5
666.42	369.3
666.867	364.5
667.313	338.9
667.759	328.9
668.205	323.8
668.651	323.1
669.097	319.1
669.543	322.3
669.989	310.6
670.435	321.2
670.881	326.1
671.327	321.7
671.773	338.1
672.219	352.7
672.665	388.3
673.11	411.2
673.556	461.9
674.002	486.6
674.448	469.5
674.893	396.6
675.339	345.3
675.785	331.2
676.23	304.5
676.676	277.5
677.122	274
677.567	267.7
678.013	265.2
678.458	247
678.904	261.9
679.349	246.8
679.794	256.9
680.24	253.7
680.685	252
681.131	248.4
681.576	254.9
682.021	255.3
682.466	250.3
682.912	240.1
683.357	248.7
683.802	274.3
684.247	292.3
684.692	322.1
685.137	354.3
685.583	385
686.028	399.6
686.473	375
686.918	313.8
687.363	301.2
687.807	292
688.252	258.8
688.697	258.9
689.142	244.6
689.587	240.3
690.032	225.6
690.477	235.9
690.921	245.6
691.366	268.6
691.811	280.7
692.255	310.5
692.7	334.1
693.145	355.2
693.589	487.4
694.034	778.5
694.478	1092.8
694.923	1283.7
695.367	1726.7
695.812	882
696.256	364.7
696.701	259.2
697.145	241.7
697.59	237.4
698.034	222.3
698.478	233.1
698.922	232.1
699.367	234.7
699.811	235.2
700.255	247.1
700.699	270.5
701.143	302.4
701.588	339.6
702.032	369.4
702.476	367.9
702.92	346.1
703.364	353.4
703.808	441.4
704.252	719.2
704.696	1018.1
705.14	1240.3
705.584	1601.8
706.027	781.4
706.471	373.2
706.915	279.2
707.359	246.6
707.803	228.5
708.246	218.4
708.69	224.8
709.134	222
709.577	214.4
710.021	227.1
710.465	219
710.908	205.2
711.352	210.3
711.795	212.4
712.239	255.5
712.682	264.7
713.126	297.1
713.569	331.1
714.012	251.3
714.456	218.5
714.899	206.5
715.342	192
715.786	184.5
716.229	185.7
716.672	180.4
717.115	175.6
717.558	175.6
718.002	176.2
718.445	188.6
718.888	205.7
719.331	207.5
719.774	219.5
720.217	211.6
720.66	197.3
721.103	186.9
721.546	175.4
721.989	176
722.432	159.5
722.874	175.3
723.317	162.8
723.76	158.6
724.203	178.8
724.645	220.8
725.088	307.5
725.531	400.9
725.974	464.3
726.416	399.9
726.859	214.3
727.301	176.2
727.744	168.7
728.187	163.6
728.629	164.9
729.071	165.4
729.514	183
729.956	191.2
730.399	207.1
730.841	204.7
731.283	198
731.726	191.1
732.168	182.4
732.61	183.9
733.053	195.4
733.495	218.3
733.937	249.9
734.379	279.4
734.821	299.5
735.263	376.1
735.705	564.1
736.148	1077.3
736.59	1835.9
737.032	2319.6
737.474	1882.4
737.916	597.8
738.357	303.8
738.799	230.3
739.241	205.7
739.683	198.1
740.125	212.6
740.567	212.2
741.008	238.2
741.45	231.8
741.892	225.7
742.334	255.3
742.775	266.3
743.217	256.4
743.658	199.4
744.1	186.5
744.542	186.4
744.983	237.3
745.425	259
745.866	254.6
746.307	204.8
746.749	198
747.19	224.6
747.632	308.4
748.073	585.8
748.514	1287.6
748.956	2077.7
749.397	2585.3
749.838	2170.7
750.279	2236.8
750.72	1127.6
751.162	406
751.603	234.3
752.044	189.5
752.485	152.7
752.926	143.2
753.367	144.3
753.808	139
754.249	141.6
754.69	132.2
755.131	132.6
755.572	130.8
756.013	126.5
756.453	127.8
756.894	134.2
757.335	130.7
757.776	136.3
758.216	143.7
758.657	140.8
759.098	142.7
759.538	153.7
759.979	187.8
760.42	257.1
760.86	486.8
761.301	1255.8
761.741	3157.6
762.182	5000.6
762.622	3524
763.063	983
763.503	400
763.943	239.7
764.384	191.8
764.824	190.8
765.264	179.6
765.705	153.8
766.145	130
766.585	124.8
767.025	121
767.465	112.2
767.906	125.9
768.346	149.8
768.786	153
769.226	156
769.666	209.2
770.106	418.6
770.546	1053.5
770.986	1959.5
771.426	1806.3
771.866	586.5
772.306	238.5
772.745	147.8
773.185	118.1
773.625	118.3
774.065	109.5
774.505	118.7
774.944	146.7
775.384	259.1
775.824	471.4
776.263	467.9
776.703	213.5
777.142	118
777.582	100.1
778.021	86.9
778.461	83.7
778.9	89
779.34	91.9
779.779	78.7
780.219	70
780.658	71.8
781.097	73.1
781.537	76.1
781.976	66.6
782.415	74.6
782.855	72.1
783.294	67.8
783.733	74.4
784.172	77.8
784.611	68.2
785.05	73.8
785.489	77
785.928	80.9
786.367	81.3
786.806	80.1
787.245	92.2
787.684	87.9
788.123	108.5
788.562	88.6
789.001	91
789.44	87.9
789.879	82.8
790.317	78.4
790.756	89.7
791.195	88.8
791.634	99.5
792.072	136.2
792.511	238.2
792.95	686.2
793.388	1551.2
793.827	1479
794.265	497.6
794.704	196.1
795.142	125.5
795.581	107.1
796.019	105.3
796.458	93.1
796.896	83.5
797.334	87.6
797.773	106.7
798.211	156.1
798.649	295.3
799.087	719
799.526	1155.4
799.964	1448.6
800.402	1547.5
800.84	567.5
801.278	221.6
801.716	139.4
802.154	108.8
802.592	100.1
803.03	90.4
803.468	90.7
803.906	101.6
804.344	114
804.782	98.2
805.22	94.9
805.658	85.4
806.096	108.5
806.533	118.1
806.971	125.1
807.409	154.6
807.847	226
808.284	459.7
808.722	1319.1
809.16	2479
809.597	2268.4
810.035	4072.8
