Data from 20171114-ORNL-Ar_H_NY_Subt18_08-03-12-381.txt Node
Date: Tue Nov 14 08:03:12 EST 2017
User: Ender
Spectrometer: HR+D1039
Trigger mode: 0
Integration Time (sec): 2.730000E-2
Scans to average: 10
Electric dark correction enabled: true
Nonlinearity correction enabled: false
Boxcar width: 0
XAxis mode: Wavelengths
Number of Pixels in Spectrum: 2048
>>>>>Begin Spectral Data<<<<<
187.836	-3.73
188.309	-3.73
188.782	-3.73
189.255	2.47
189.728	-5.33
190.201	3.17
190.674	3.17
191.147	1.27
191.619	-8.13
192.092	1.97
192.565	3.37
193.038	1.57
193.511	-0.13
193.984	-0.93
194.456	-5.03
194.929	2.27
195.402	0.27
195.874	3.77
196.347	4.07
196.82	-11.03
197.292	1.77
197.765	-4.53
198.237	-9.73
198.71	4.87
199.182	-4.13
199.655	-1.83
200.127	2.67
200.6	-1.43
201.072	-2.63
201.544	-7.73
202.017	-1.83
202.489	3.57
202.961	-4.43
203.433	-4.73
203.906	-10.83
204.378	-4.43
204.85	-6.43
205.322	-5.73
205.794	-7.13
206.266	-8.13
206.739	-9.33
207.211	2.17
207.683	-11.93
208.155	-11.63
208.627	-9.93
209.099	-4.73
209.57	-11.23
210.042	-10.23
210.514	-8.83
210.986	-6.43
211.458	-14.13
211.93	-2.13
212.402	-1.23
212.873	-5.53
213.345	-5.53
213.817	-14.63
214.288	-7.73
214.76	-13.33
215.232	-2.43
215.703	-4.93
216.175	-6.03
216.646	-9.73
217.118	-4.23
217.589	-5.93
218.061	-7.73
218.532	-6.13
219.004	-6.13
219.475	-11.23
219.946	-7.43
220.418	-14.43
220.889	0.17
221.36	-2.63
221.832	-3.33
222.303	-7.03
222.774	1.17
223.245	-5.83
223.717	-10.73
224.188	-7.73
224.659	-11.73
225.13	-9.23
225.601	-8.53
226.072	-7.53
226.543	-0.63
227.014	2.57
227.485	-9.63
227.956	-6.63
228.427	-1.23
228.898	-6.43
229.369	-4.93
229.839	-11.33
230.31	-11.03
230.781	-5.63
231.252	-4.93
231.722	-14.93
232.193	-11.63
232.664	-4.63
233.135	-3.53
233.605	-6.93
234.076	-13.63
234.546	-5.63
235.017	-4.73
235.487	-4.03
235.958	-2.43
236.428	-9.63
236.899	-7.43
237.369	-5.73
237.84	-8.83
238.31	-0.53
238.78	-12.33
239.251	-9.63
239.721	-7.53
240.191	-9.13
240.662	-11.53
241.132	-11.83
241.602	-13.93
242.072	-10.13
242.542	4.07
243.013	-10.93
243.483	-5.83
243.953	-7.93
244.423	-4.43
244.893	-12.93
245.363	-2.43
245.833	-6.63
246.303	-8.83
246.773	-1.13
247.243	-7.03
247.712	-4.33
248.182	-1.23
248.652	-4.83
249.122	-15.03
249.592	-5.13
250.061	-0.93
250.531	4.47
251.001	-11.53
251.471	1.17
251.94	-2.03
252.41	-7.73
252.879	-17.33
253.349	1.97
253.818	0.07
254.288	-4.03
254.757	-7.53
255.227	-8.13
255.696	-0.53
256.166	-5.83
256.635	-5.93
257.105	-7.03
257.574	-8.23
258.043	-4.63
258.513	-8.73
258.982	-2.43
259.451	-9.43
259.92	-4.73
260.389	-2.93
260.859	1.17
261.328	-2.93
261.797	-1.63
262.266	-12.13
262.735	0.47
263.204	-5.23
263.673	-11.43
264.142	-3.83
264.611	-14.33
265.08	-6.23
265.549	-12.43
266.018	-2.73
266.487	-14.13
266.955	-9.53
267.424	-6.83
267.893	-2.23
268.362	-11.43
268.83	-6.03
269.299	-3.93
269.768	-6.33
270.236	-4.93
270.705	-11.93
271.174	-8.43
271.642	-5.93
272.111	-4.73
272.579	-5.33
273.048	-5.63
273.516	-7.03
273.985	-6.83
274.453	-2.73
274.922	-4.93
275.39	-6.23
275.858	-10.93
276.327	-4.23
276.795	4.57
277.263	-10.63
277.731	1.47
278.2	-9.83
278.668	-6.33
279.136	-7.03
279.604	-12.23
280.072	-4.33
280.54	-8.13
281.008	-4.83
281.477	-5.63
281.945	1.17
282.413	-3.53
282.881	-3.03
283.348	-13.43
283.816	-5.63
284.284	-1.73
284.752	3.87
285.22	1.77
285.688	-7.03
286.156	-8.03
286.623	0.27
287.091	-8.93
287.559	-7.93
288.026	-3.73
288.494	-7.63
288.962	-11.13
289.429	-14.13
289.897	-2.43
290.364	-5.53
290.832	-6.63
291.3	-12.13
291.767	-3.43
292.234	-5.53
292.702	-5.33
293.169	-11.43
293.637	-3.93
294.104	-5.03
294.571	-9.73
295.039	-5.83
295.506	-8.23
295.973	-7.53
296.44	-8.13
296.908	-11.53
297.375	-4.13
297.842	-8.13
298.309	-5.63
298.776	-12.53
299.243	-9.73
299.71	-17.13
300.177	-4.73
300.644	-6.83
301.111	-7.13
301.578	-1.73
302.045	-11.33
302.512	-7.53
302.979	-1.83
303.446	-4.33
303.913	-10.93
304.379	-4.43
304.846	-2.63
305.313	-0.73
305.78	-4.53
306.246	-4.13
306.713	0.27
307.18	-6.43
307.646	-4.03
308.113	-5.93
308.579	-13.03
309.046	-7.83
309.512	-1.93
309.979	-8.73
310.445	-5.73
310.912	-8.93
311.378	-3.93
311.845	2.97
312.311	-4.83
312.777	-3.33
313.244	-9.53
313.71	0.87
314.176	-10.63
314.642	-8.53
315.109	-11.23
315.575	-3.93
316.041	-3.83
316.507	-4.83
316.973	-4.63
317.439	-9.13
317.905	-1.83
318.371	-3.53
318.837	-4.43
319.303	-6.23
319.769	-11.13
320.235	-6.23
320.701	-3.03
321.167	-3.93
321.633	-6.43
322.099	-3.93
322.564	-3.03
323.03	-6.43
323.496	-8.23
323.962	-10.33
324.427	-6.63
324.893	-5.13
325.359	-6.83
325.824	-7.33
326.29	-8.93
326.755	-7.73
327.221	-11.33
327.686	-8.53
328.152	-2.63
328.617	-6.03
329.083	-3.33
329.548	-3.53
330.014	-4.33
330.479	-11.03
330.944	-9.53
331.41	-7.53
331.875	-2.13
332.34	-3.53
332.805	-4.43
333.271	-5.23
333.736	-13.23
334.201	-3.23
334.666	-5.83
335.131	-12.43
335.596	-8.73
336.061	-8.43
336.526	-11.43
336.991	-2.43
337.456	1.37
337.921	-2.23
338.386	-13.53
338.851	-8.63
339.316	-1.53
339.781	-3.43
340.246	0.57
340.711	-8.43
341.175	-1.43
341.64	-11.93
342.105	-6.73
342.569	-4.73
343.034	-1.63
343.499	-5.33
343.963	-10.93
344.428	-0.03
344.893	-4.43
345.357	-4.83
345.822	-3.73
346.286	-3.83
346.751	-0.73
347.215	-6.23
347.679	-10.63
348.144	-3.73
348.608	-0.03
349.073	-11.33
349.537	-3.63
350.001	-6.43
350.465	-1.93
350.93	-9.63
351.394	-1.23
351.858	-8.23
352.322	-1.33
352.786	-10.33
353.25	-8.03
353.715	0.47
354.179	-10.33
354.643	3.37
355.107	2.37
355.571	-3.03
356.035	-5.13
356.498	-5.63
356.962	-12.73
357.426	-1.73
357.89	-5.13
358.354	-4.23
358.818	0.97
359.281	-8.33
359.745	-5.33
360.209	-9.53
360.673	-13.53
361.136	-0.63
361.6	-0.33
362.064	-2.53
362.527	-1.83
362.991	0.47
363.454	-1.73
363.918	-11.23
364.381	-10.63
364.845	-5.53
365.308	-2.93
365.772	-3.33
366.235	-3.53
366.698	-7.73
367.162	-4.63
367.625	-10.63
368.088	-5.63
368.552	-7.73
369.015	-9.33
369.478	0.87
369.941	-2.33
370.404	-10.23
370.867	-1.33
371.331	-4.53
371.794	-2.33
372.257	-12.33
372.72	-2.33
373.183	-6.83
373.646	-10.43
374.109	-13.13
374.572	-2.03
375.035	-12.43
375.497	-11.13
375.96	-8.13
376.423	-16.93
376.886	0.37
377.349	-2.43
377.811	-6.23
378.274	-6.03
378.737	-7.13
379.199	-6.83
379.662	-12.93
380.125	-6.23
380.587	-8.63
381.05	-8.23
381.512	-4.83
381.975	-1.33
382.437	-8.63
382.9	-3.63
383.362	-4.23
383.825	-5.53
384.287	-7.13
384.75	-7.83
385.212	-4.03
385.674	-6.53
386.136	-5.43
386.599	-4.93
387.061	-4.13
387.523	-0.23
387.985	-5.43
388.447	2.47
388.91	-1.83
389.372	-1.93
389.834	-0.53
390.296	-3.43
390.758	-4.23
391.22	-1.33
391.682	0.27
392.144	1.47
392.606	-1.43
393.068	-2.23
393.529	-3.23
393.991	-11.63
394.453	-9.83
394.915	-6.33
395.377	-9.43
395.838	-2.93
396.3	-2.13
396.762	-0.83
397.224	-5.03
397.685	-1.73
398.147	-10.63
398.608	-11.93
399.07	-11.43
399.531	-9.93
399.993	-8.83
400.454	-2.73
400.916	-0.53
401.377	-12.23
401.839	-7.23
402.3	-8.43
402.762	1.67
403.223	-0.43
403.684	-3.63
404.145	-1.53
404.607	-4.73
405.068	-0.53
405.529	-7.73
405.99	-2.43
406.451	-10.03
406.913	0.27
407.374	-6.53
407.835	-6.23
408.296	-2.83
408.757	-8.13
409.218	-8.73
409.679	-2.43
410.14	-5.83
410.601	1.07
411.062	1.17
411.522	-2.63
411.983	-8.93
412.444	-12.43
412.905	-8.73
413.366	-8.93
413.826	-5.83
414.287	-11.83
414.748	-3.83
415.208	-2.83
415.669	-6.03
416.13	0.17
416.59	-6.83
417.051	-5.53
417.511	-3.03
417.972	-8.13
418.432	-3.93
418.893	-5.13
419.353	-2.13
419.814	-3.83
420.274	-5.23
420.734	-6.23
421.195	-4.63
421.655	-12.03
422.115	-5.13
422.576	-2.93
423.036	-7.23
423.496	-0.73
423.956	4.67
424.416	-9.63
424.876	-0.93
425.336	-4.13
425.797	-5.53
426.257	-0.73
426.717	-7.53
427.177	5.37
427.637	-7.33
428.097	-2.63
428.556	-8.13
429.016	-2.73
429.476	-3.53
429.936	-2.33
430.396	-11.93
430.856	-3.63
431.315	1.47
431.775	-6.13
432.235	3.67
432.694	-10.33
433.154	-1.93
433.614	-10.23
434.073	-10.03
434.533	-0.63
434.993	-7.53
435.452	-2.83
435.912	-1.53
436.371	-1.83
436.83	-10.53
437.29	-3.63
437.749	-8.03
438.209	-2.53
438.668	-10.23
439.127	-4.63
439.587	-3.03
440.046	-4.23
440.505	-8.33
440.964	-10.23
441.424	-13.13
441.883	-9.63
442.342	4.67
442.801	-2.13
443.26	-4.63
443.719	0.77
444.178	-2.33
444.637	-10.73
445.096	-7.73
445.555	-8.93
446.014	-4.13
446.473	2.37
446.932	-6.13
447.391	-6.83
447.849	-5.33
448.308	-7.93
448.767	-6.93
449.226	-1.13
449.685	-7.33
450.143	-0.63
450.602	-4.13
451.061	-11.53
451.519	-5.93
451.978	-4.33
452.436	-8.23
452.895	-9.73
453.353	-1.93
453.812	1.37
454.27	3.47
454.729	4.67
455.187	-11.13
455.646	-8.03
456.104	-4.43
456.562	-1.83
457.021	-7.33
457.479	1.37
457.937	-6.53
458.395	-13.33
458.854	-13.63
459.312	-3.43
459.77	-10.13
460.228	-9.53
460.686	-10.73
461.144	-3.73
461.602	-9.33
462.06	-9.83
462.518	-6.03
462.976	-5.23
463.434	-8.13
463.892	-2.83
464.35	-3.63
464.808	3.97
465.266	-4.83
465.724	-3.73
466.181	-4.73
466.639	-3.13
467.097	0.27
467.555	-5.23
468.012	-4.73
468.47	-4.83
468.928	-6.63
469.385	0.07
469.843	-3.73
470.3	-8.53
470.758	-3.03
471.215	-5.43
471.673	-4.93
472.13	-6.03
472.588	0.07
473.045	-5.73
473.503	-4.53
473.96	-2.23
474.417	-4.43
474.875	-7.73
475.332	-0.63
475.789	-3.53
476.246	-4.73
476.704	-9.43
477.161	-0.13
477.618	-9.03
478.075	-1.13
478.532	3.97
478.989	-5.03
479.446	-2.33
479.903	3.07
480.36	-3.03
480.817	-6.53
481.274	1.67
481.731	-0.33
482.188	-15.33
482.645	2.37
483.102	-2.03
483.558	-9.03
484.015	-1.83
484.472	-4.83
484.929	-2.93
485.385	-2.83
485.842	-3.83
486.299	-10.83
486.755	-4.43
487.212	-5.83
487.668	-2.63
488.125	-2.73
488.582	-4.03
489.038	-3.63
489.494	-5.03
489.951	-10.03
490.407	-3.33
490.864	-6.83
491.32	0.07
491.776	-0.03
492.233	-5.13
492.689	-13.73
493.145	-5.03
493.602	-2.63
494.058	-2.13
494.514	-6.43
494.97	-2.03
495.426	-7.23
495.882	-2.83
496.338	-3.73
496.794	0.87
497.251	-13.83
497.707	2.97
498.163	-4.53
498.618	-7.53
499.074	-4.43
499.53	-0.73
499.986	-3.13
500.442	-15.13
500.898	-7.73
501.354	-10.93
501.809	-8.73
502.265	-6.73
502.721	-3.63
503.177	-0.13
503.632	-1.43
504.088	-3.93
504.543	-4.33
504.999	-7.03
505.455	-17.03
505.91	-13.73
506.366	-6.23
506.821	-12.83
507.277	-3.03
507.732	-6.83
508.187	-6.23
508.643	-0.93
509.098	-6.83
509.553	-0.63
510.009	0.17
510.464	-12.73
510.919	-3.03
511.375	-10.83
511.83	-4.23
512.285	-3.53
512.74	-3.23
513.195	-3.93
513.65	-8.23
514.105	-4.33
514.56	-5.83
515.015	-0.53
515.47	-0.23
515.925	1.17
516.38	-7.03
516.835	-1.73
517.29	-4.23
517.745	-3.63
518.2	1.37
518.655	-3.23
519.109	-4.63
519.564	1.77
520.019	-4.33
520.474	-10.83
520.928	-6.23
521.383	-5.43
521.838	-10.43
522.292	1.47
522.747	0.17
523.201	2.87
523.656	0.57
524.11	-1.13
524.565	-4.13
525.019	-10.43
525.474	-5.83
525.928	-6.43
526.382	-11.23
526.837	-4.23
527.291	-13.23
527.745	-7.33
528.2	-5.83
528.654	-4.63
529.108	-11.03
529.562	-5.33
530.016	-5.73
530.47	-7.63
530.925	-2.73
531.379	-13.43
531.833	-15.33
532.287	-9.53
532.741	-9.33
533.195	-10.23
533.649	-6.13
534.103	-1.13
534.556	-10.63
535.01	-8.43
535.464	-10.73
535.918	-3.43
536.372	-4.13
536.826	-1.83
537.279	-12.13
537.733	-8.23
538.187	-7.73
538.64	-9.93
539.094	-3.83
539.548	-3.63
540.001	-10.73
540.455	-10.13
540.908	-4.33
541.362	-2.63
541.815	-4.93
542.269	-5.83
542.722	-7.33
543.175	-4.63
543.629	-12.53
544.082	-0.03
544.536	-6.83
544.989	-10.23
545.442	-4.33
545.895	-10.63
546.349	-3.93
546.802	-10.53
547.255	-6.63
547.708	-9.93
548.161	-14.63
548.614	-5.73
549.067	-3.93
549.52	-7.03
549.973	-6.43
550.426	-2.53
550.879	-9.63
551.332	-6.83
551.785	-5.93
552.238	-6.73
552.691	2.67
553.144	-7.73
553.596	-7.03
554.049	-10.43
554.502	-9.13
554.955	-4.53
555.407	-7.23
555.86	-14.33
556.313	-7.13
556.765	-6.73
557.218	3.87
557.67	-2.43
558.123	-6.53
558.576	-7.53
559.028	-8.03
559.48	-6.33
559.933	-3.03
560.385	-7.13
560.838	-9.43
561.29	-5.33
561.742	-3.53
562.195	-10.33
562.647	-8.13
563.099	1.67
563.551	0.47
564.004	-0.53
564.456	-7.03
564.908	-7.43
565.36	-3.63
565.812	-1.03
566.264	-9.03
566.716	0.17
567.168	-6.83
567.62	-0.13
568.072	-6.33
568.524	-1.13
568.976	-3.83
569.428	-4.83
569.88	-13.23
570.332	-3.23
570.784	-3.93
571.235	-8.73
571.687	-10.53
572.139	-6.23
572.59	-2.53
573.042	-9.13
573.494	-5.43
573.945	-0.93
574.397	-6.33
574.849	-6.53
575.3	-2.43
575.752	-1.23
576.203	-4.63
576.655	-0.63
577.106	-6.73
577.557	-6.93
578.009	-0.13
578.46	-7.33
578.912	-2.73
579.363	-8.33
579.814	-2.23
580.265	-10.33
580.717	-8.63
581.168	-8.93
581.619	0.07
582.07	-1.03
582.521	-8.63
582.972	-12.03
583.423	-6.13
583.875	-5.93
584.326	-5.63
584.777	-5.53
585.227	-5.13
585.678	-2.83
586.129	-4.03
586.58	-0.73
587.031	-1.13
587.482	-1.93
587.933	-2.03
588.384	-6.33
588.834	-5.93
589.285	-5.83
589.736	-5.13
590.186	-10.03
590.637	-6.63
591.088	-6.53
591.538	-2.93
591.989	2.37
592.439	2.47
592.89	-3.63
593.34	-9.53
593.791	-11.23
594.241	-7.63
594.692	-3.53
595.142	-10.13
595.593	-6.93
596.043	-3.73
596.493	-8.13
596.943	-2.63
597.394	-2.33
597.844	-11.23
598.294	-11.63
598.744	-2.63
599.195	-4.73
599.645	7.57
600.095	-4.63
600.545	-10.23
600.995	-11.83
601.445	0.17
601.895	-10.43
602.345	-5.43
602.795	-6.83
603.245	-2.13
603.695	-3.83
604.145	-12.03
604.594	-5.33
605.044	-14.23
605.494	-5.13
605.944	-11.53
606.393	-2.03
606.843	-6.23
607.293	-6.43
607.743	-8.03
608.192	-4.93
608.642	-5.23
609.091	-1.53
609.541	-3.23
609.99	-6.83
610.44	3.67
610.889	-5.13
611.339	-8.63
611.788	-14.13
612.238	-9.53
612.687	6.17
613.136	-8.93
613.586	0.27
614.035	-13.13
614.484	-10.93
614.933	-12.03
615.383	2.27
615.832	-1.83
616.281	-3.13
616.73	-1.33
617.179	-1.43
617.628	-3.43
618.077	-9.33
618.526	-4.43
618.975	-5.43
619.424	-6.93
619.873	-6.73
620.322	-1.33
620.771	-6.83
621.22	-2.53
621.669	-0.43
622.118	-5.03
622.567	-9.23
623.015	-9.93
623.464	-8.93
623.913	-10.13
624.361	-15.13
624.81	-10.33
625.259	-5.53
625.707	-0.53
626.156	-0.23
626.604	-2.33
627.053	-12.93
627.501	-13.33
627.95	-14.33
628.398	-11.83
628.847	-17.73
629.295	-15.03
629.744	0.07
630.192	1.17
630.64	-3.73
631.089	-4.33
631.537	-5.13
631.985	-8.43
632.433	-6.03
632.881	1.67
633.33	-4.23
633.778	-6.43
634.226	-11.23
634.674	-4.03
635.122	-8.23
635.57	-9.63
636.018	-10.83
636.466	-0.13
636.914	-9.63
637.362	3.47
637.81	4.87
638.258	-0.93
638.705	-3.23
639.153	-4.43
639.601	-14.43
640.049	-14.23
640.497	-11.33
640.944	-1.33
641.392	-13.33
641.84	-7.43
642.287	-7.93
642.735	-15.13
643.182	-7.53
643.63	-5.03
644.078	-11.43
644.525	-2.63
644.973	-8.83
645.42	-11.93
645.867	-8.63
646.315	-2.13
646.762	-7.83
647.21	-5.93
647.657	-11.33
648.104	-3.13
648.551	-8.63
648.999	-6.93
649.446	-3.93
649.893	-5.63
650.34	-7.33
650.787	-10.93
651.234	-1.23
651.682	-7.33
652.129	-7.13
652.576	-7.23
653.023	4.97
653.47	0.87
653.917	-4.73
654.363	-3.23
654.81	-11.63
655.257	-15.33
655.704	1.67
656.151	-6.23
656.598	1.27
657.044	0.07
657.491	-2.43
657.938	-6.83
658.385	-4.53
658.831	-6.53
659.278	4.07
659.724	-11.43
660.171	-2.73
660.618	-6.53
661.064	-5.73
661.511	-6.23
661.957	-5.43
662.404	-6.33
662.85	-3.23
663.296	-4.33
663.743	-6.53
664.189	-4.33
664.635	-1.43
665.082	-10.13
665.528	-3.43
665.974	-3.33
666.42	-11.93
666.867	-0.73
667.313	-9.83
667.759	2.47
668.205	-8.63
668.651	-4.63
669.097	-0.63
669.543	-14.13
669.989	-4.33
670.435	-7.53
670.881	-5.53
671.327	-7.03
671.773	-11.33
672.219	-5.63
672.665	1.17
673.11	-3.23
673.556	1.67
674.002	-2.83
674.448	-15.43
674.893	-3.73
675.339	-4.73
675.785	-5.53
676.23	-0.33
676.676	-13.53
677.122	-10.63
677.567	-0.73
678.013	-2.63
678.458	-6.03
678.904	-2.13
679.349	-9.63
679.794	-2.33
680.24	-8.63
680.685	-6.23
681.131	-8.83
681.576	-6.13
682.021	-3.73
682.466	-8.23
682.912	-11.63
683.357	-13.73
683.802	-3.63
684.247	-0.43
684.692	-1.73
685.137	-11.73
685.583	-7.23
686.028	-9.53
686.473	-11.93
686.918	-12.13
687.363	-1.83
687.807	-3.93
688.252	-6.23
688.697	3.47
689.142	-0.63
689.587	-6.43
690.032	-14.93
690.477	-8.13
690.921	-11.73
691.366	-6.43
691.811	-11.33
692.255	-1.43
692.7	2.47
693.145	-6.53
693.589	0.17
694.034	-3.63
694.478	-4.33
694.923	3.47
695.367	-9.13
695.812	-3.83
696.256	-5.03
696.701	-8.43
697.145	-5.23
697.59	-8.83
698.034	-11.73
698.478	1.37
698.922	-8.83
699.367	-5.93
699.811	2.07
700.255	-4.83
700.699	-6.23
701.143	-8.13
701.588	-4.03
702.032	-5.13
702.476	-11.53
702.92	-6.23
703.364	-8.73
703.808	-3.23
704.252	-3.53
704.696	-5.33
705.14	-7.73
705.584	-11.83
706.027	-2.63
706.471	-8.43
706.915	-6.73
707.359	-2.03
707.803	-7.83
708.246	-11.33
708.69	-2.13
709.134	1.67
709.577	-2.23
710.021	1.07
710.465	-4.73
710.908	-9.43
711.352	-12.43
711.795	-14.43
712.239	0.97
712.682	-8.63
713.126	-6.43
713.569	-2.53
714.012	3.87
714.456	-8.03
714.899	-0.83
715.342	-13.33
715.786	-8.03
716.229	-4.53
716.672	-8.93
717.115	-7.53
717.558	-1.83
718.002	-12.13
718.445	-2.13
718.888	-0.93
719.331	-2.23
719.774	-3.33
720.217	2.97
720.66	-5.03
721.103	-8.23
721.546	-1.63
721.989	-0.63
722.432	-15.83
722.874	-0.63
723.317	-12.63
723.76	-7.23
724.203	-2.63
724.645	-1.43
725.088	-3.53
725.531	-11.43
725.974	-8.33
726.416	-5.13
726.859	-3.53
727.301	-7.03
727.744	-1.13
728.187	-7.83
728.629	-0.33
729.071	-7.03
729.514	2.27
729.956	-4.43
730.399	-8.33
730.841	-3.93
731.283	-15.43
731.726	-6.83
732.168	-8.83
732.61	-3.33
733.053	-2.83
733.495	-7.83
733.937	-10.83
734.379	-6.03
734.821	-0.13
735.263	-7.53
735.705	-4.53
736.148	-9.93
736.59	4.47
737.032	-13.23
737.474	0.37
737.916	-12.03
738.357	-6.73
738.799	-7.43
739.241	-7.73
739.683	-7.53
740.125	-1.73
740.567	-7.23
741.008	1.07
741.45	-2.13
741.892	-6.43
742.334	-2.23
742.775	-10.63
743.217	-9.73
743.658	-8.53
744.1	-4.23
744.542	-3.03
744.983	-4.03
745.425	-7.63
745.866	-3.03
746.307	-0.03
746.749	-1.63
747.19	-2.83
747.632	1.67
748.073	-14.63
748.514	2.77
748.956	-5.33
749.397	-10.83
749.838	-1.43
750.279	-10.03
750.72	-8.83
751.162	0.17
751.603	-5.93
752.044	-4.33
752.485	-9.33
752.926	-10.33
753.367	-3.53
753.808	-3.73
754.249	-2.83
754.69	-4.13
755.131	-8.93
755.572	-13.33
756.013	-7.33
756.453	-7.43
756.894	-8.03
757.335	-9.43
757.776	-2.83
758.216	-3.63
758.657	-8.43
759.098	-9.73
759.538	-13.23
759.979	-12.83
760.42	-11.33
760.86	-5.03
761.301	0.67
761.741	-4.93
762.182	-7.23
762.622	-3.03
763.063	-9.73
763.503	-8.23
763.943	-7.43
764.384	-2.43
764.824	-9.03
765.264	-8.83
765.705	-2.33
766.145	-15.23
766.585	-8.23
767.025	-9.13
767.465	-18.33
767.906	-0.73
768.346	0.67
768.786	-7.43
769.226	-2.43
769.666	0.57
770.106	-8.23
770.546	-2.73
770.986	-9.33
771.426	-6.63
771.866	-4.13
772.306	-10.23
772.745	-6.33
773.185	-3.43
773.625	-1.53
774.065	-7.63
774.505	-10.13
774.944	-7.93
775.384	-8.03
775.824	-6.33
776.263	-9.33
776.703	-15.83
777.142	-12.83
777.582	-14.13
778.021	-13.43
778.461	-11.93
778.9	-1.73
779.34	-2.03
779.779	-6.93
780.219	-14.63
780.658	-12.73
781.097	-7.33
781.537	-5.23
781.976	-7.03
782.415	-11.03
782.855	-6.23
783.294	-11.43
783.733	-7.83
784.172	-2.13
784.611	-8.03
785.05	-7.23
