Data from 20171114-ORNL-Ar_H_NY_Subt18_08-03-44-046.txt Node
Date: Tue Nov 14 08:03:44 EST 2017
User: Ender
Spectrometer: HR+D1039
Trigger mode: 0
Integration Time (sec): 2.730000E-2
Scans to average: 10
Electric dark correction enabled: true
Nonlinearity correction enabled: false
Boxcar width: 0
XAxis mode: Wavelengths
Number of Pixels in Spectrum: 2048
>>>>>Begin Spectral Data<<<<<
187.836	-2.36
188.309	-2.36
188.782	-2.36
189.255	2.24
189.728	1.64
190.201	7.84
190.674	-4.06
191.147	4.54
191.619	-3.86
192.092	0.34
192.565	-0.86
193.038	-2.46
193.511	0.74
193.984	1.54
194.456	-0.16
194.929	-4.96
195.402	2.34
195.874	-2.46
196.347	-0.66
196.82	-6.86
197.292	0.84
197.765	-2.66
198.237	-4.16
198.71	-0.76
199.182	-1.36
199.655	2.54
200.127	1.44
200.6	-5.96
201.072	-5.06
201.544	-1.16
202.017	-2.46
202.489	3.34
202.961	-4.16
203.433	-4.16
203.906	-8.16
204.378	-4.86
204.85	-5.26
205.322	-17.06
205.794	-2.76
206.266	-9.26
206.739	-7.56
207.211	2.14
207.683	-10.16
208.155	-2.36
208.627	-5.36
209.099	2.04
209.57	-5.96
210.042	-6.26
210.514	-6.36
210.986	1.34
211.458	-13.26
211.93	-8.26
212.402	1.04
212.873	-4.66
213.345	-10.16
213.817	-9.16
214.288	3.44
214.76	-10.36
215.232	-0.26
215.703	-6.26
216.175	2.04
216.646	-6.86
217.118	-4.16
217.589	-1.96
218.061	-1.66
218.532	-4.06
219.004	-2.16
219.475	-1.06
219.946	-7.36
220.418	-1.66
220.889	3.54
221.36	3.74
221.832	-1.06
222.303	-4.46
222.774	-0.86
223.245	-3.66
223.717	-4.46
224.188	-2.06
224.659	-7.36
225.13	-1.66
225.601	-4.66
226.072	6.74
226.543	-6.16
227.014	-4.96
227.485	-4.06
227.956	-3.56
228.427	-8.76
228.898	-0.16
229.369	5.84
229.839	-2.86
230.31	-5.06
230.781	4.74
231.252	-1.86
231.722	-7.86
232.193	-2.56
232.664	2.34
233.135	-1.66
233.605	0.44
234.076	-3.66
234.546	-2.46
235.017	-0.96
235.487	2.94
235.958	3.64
236.428	-9.66
236.899	-1.36
237.369	2.44
237.84	-2.86
238.31	3.74
238.78	1.44
239.251	-9.16
239.721	-1.16
240.191	-4.46
240.662	-4.86
241.132	-0.26
241.602	-0.36
242.072	-2.86
242.542	6.74
243.013	-0.36
243.483	6.14
243.953	2.74
244.423	0.84
244.893	1.24
245.363	3.34
245.833	1.44
246.303	-1.26
246.773	6.04
247.243	1.54
247.712	-0.76
248.182	3.14
248.652	-0.36
249.122	-9.76
249.592	-0.96
250.061	5.84
250.531	4.84
251.001	-1.96
251.471	4.64
251.94	8.94
252.41	-1.26
252.879	-6.76
253.349	9.54
253.818	1.14
254.288	6.44
254.757	-2.86
255.227	-2.56
255.696	-3.16
256.166	1.24
256.635	3.34
257.105	2.24
257.574	0.64
258.043	4.64
258.513	-1.66
258.982	0.34
259.451	-1.76
259.92	1.04
260.389	7.74
260.859	4.84
261.328	-1.76
261.797	5.94
262.266	-1.66
262.735	7.84
263.204	1.74
263.673	-4.26
264.142	4.04
264.611	-5.76
265.08	-1.76
265.549	-3.56
266.018	1.14
266.487	-2.56
266.955	-6.36
267.424	0.54
267.893	7.14
268.362	-3.76
268.83	-2.06
269.299	4.44
269.768	3.54
270.236	5.84
270.705	3.34
271.174	1.44
271.642	4.54
272.111	4.64
272.579	-3.46
273.048	1.54
273.516	8.64
273.985	-0.36
274.453	5.64
274.922	8.34
275.39	2.44
275.858	-2.56
276.327	8.64
276.795	15.24
277.263	1.84
277.731	11.64
278.2	9.04
278.668	3.14
279.136	7.84
279.604	7.74
280.072	5.34
280.54	4.74
281.008	5.44
281.477	7.64
281.945	11.24
282.413	10.44
282.881	15.34
283.348	4.94
283.816	13.54
284.284	5.54
284.752	8.54
285.22	3.64
285.688	13.44
286.156	8.14
286.623	14.84
287.091	3.94
287.559	9.84
288.026	10.54
288.494	10.94
288.962	-1.66
289.429	6.84
289.897	13.64
290.364	9.24
290.832	14.64
291.3	9.84
291.767	13.44
292.234	9.34
292.702	8.94
293.169	18.14
293.637	20.14
294.104	18.34
294.571	2.44
295.039	5.24
295.506	9.44
295.973	11.94
296.44	11.94
296.908	14.64
297.375	12.44
297.842	16.74
298.309	17.04
298.776	6.84
299.243	12.24
299.71	9.84
300.177	10.84
300.644	12.54
301.111	12.44
301.578	17.24
302.045	15.24
302.512	23.34
302.979	20.44
303.446	9.94
303.913	10.64
304.379	10.94
304.846	20.54
305.313	16.94
305.78	16.44
306.246	15.34
306.713	19.84
307.18	16.84
307.646	13.84
308.113	20.74
308.579	19.04
309.046	17.44
309.512	23.94
309.979	13.54
310.445	22.04
310.912	25.64
311.378	24.44
311.845	28.84
312.311	25.84
312.777	26.14
313.244	30.04
313.71	32.84
314.176	26.24
314.642	22.74
315.109	13.64
315.575	25.44
316.041	31.24
316.507	19.94
316.973	28.44
317.439	24.14
317.905	32.64
318.371	30.64
318.837	29.34
319.303	35.34
319.769	25.34
320.235	23.54
320.701	27.84
321.167	32.24
321.633	21.44
322.099	27.24
322.564	33.54
323.03	27.14
323.496	32.54
323.962	35.84
324.427	30.84
324.893	37.84
325.359	35.64
325.824	35.94
326.29	33.34
326.755	33.84
327.221	35.54
327.686	36.34
328.152	36.54
328.617	38.74
329.083	43.94
329.548	44.14
330.014	39.54
330.479	30.14
330.944	35.84
331.41	32.94
331.875	40.04
332.34	37.14
332.805	40.84
333.271	38.44
333.736	33.34
334.201	46.14
334.666	45.34
335.131	49.54
335.596	50.84
336.061	46.14
336.526	36.44
336.991	40.94
337.456	51.94
337.921	45.44
338.386	46.54
338.851	47.44
339.316	42.34
339.781	45.34
340.246	50.44
340.711	48.64
341.175	47.64
341.64	38.74
342.105	47.54
342.569	50.04
343.034	50.94
343.499	51.84
343.963	52.64
344.428	58.34
344.893	54.04
345.357	55.54
345.822	57.34
346.286	60.74
346.751	73.44
347.215	64.64
347.679	63.14
348.144	82.14
348.608	74.34
349.073	67.64
349.537	66.54
350.001	71.84
350.465	86.44
350.93	75.84
351.394	79.14
351.858	63.64
352.322	82.24
352.786	74.44
353.25	96.44
353.715	98.44
354.179	90.74
354.643	105.64
355.107	105.74
355.571	99.24
356.035	92.64
356.498	100.94
356.962	96.84
357.426	109.94
357.89	105.44
358.354	88.44
358.818	84.24
359.281	77.04
359.745	83.54
360.209	68.14
360.673	80.24
361.136	83.74
361.6	90.74
362.064	83.34
362.527	83.84
362.991	90.84
363.454	83.34
363.918	84.64
364.381	82.34
364.845	89.14
365.308	87.64
365.772	93.94
366.235	91.64
366.698	87.84
367.162	85.34
367.625	87.74
368.088	90.34
368.552	96.04
369.015	104.44
369.478	101.14
369.941	98.84
370.404	100.84
370.867	101.84
371.331	105.94
371.794	110.74
372.257	101.44
372.72	111.74
373.183	108.14
373.646	97.64
374.109	103.34
374.572	105.04
375.035	110.94
375.497	109.64
375.96	106.54
376.423	112.34
376.886	120.04
377.349	122.74
377.811	112.14
378.274	109.34
378.737	119.34
379.199	121.14
379.662	115.84
380.125	124.14
380.587	114.54
381.05	111.64
381.512	122.94
381.975	136.74
382.437	135.44
382.9	131.74
383.362	129.74
383.825	141.14
384.287	142.34
384.75	127.04
385.212	135.54
385.674	138.24
386.136	143.74
386.599	132.34
387.061	130.44
387.523	134.84
387.985	146.04
388.447	142.84
388.91	139.24
389.372	147.84
389.834	140.54
390.296	132.04
390.758	140.04
391.22	146.24
391.682	160.94
392.144	158.04
392.606	160.14
393.068	154.14
393.529	166.44
393.991	159.64
394.453	147.84
394.915	150.34
395.377	145.84
395.838	147.74
396.3	159.14
396.762	156.74
397.224	151.74
397.685	153.34
398.147	155.64
398.608	147.44
399.07	147.34
399.531	160.44
399.993	168.34
400.454	173.74
400.916	163.84
401.377	167.64
401.839	170.74
402.3	170.04
402.762	183.64
403.223	200.64
403.684	185.84
404.145	184.24
404.607	182.94
405.068	179.04
405.529	185.34
405.99	194.14
406.451	186.24
406.913	200.54
407.374	191.34
407.835	186.94
408.296	192.44
408.757	194.94
409.218	202.74
409.679	200.34
410.14	194.64
410.601	200.14
411.062	199.64
411.522	198.04
411.983	198.44
412.444	205.74
412.905	204.04
413.366	215.44
413.826	224.44
414.287	257.64
414.748	300.84
415.208	291.44
415.669	249.64
416.13	233.34
416.59	235.84
417.051	251.64
417.511	255.64
417.972	281.84
418.432	297.94
418.893	341.44
419.353	293.74
419.814	236.14
420.274	208.64
420.734	211.34
421.195	218.34
421.655	215.54
422.115	221.64
422.576	221.04
423.036	224.24
423.496	245.74
423.956	242.64
424.416	259.84
424.876	301.54
425.336	297.14
425.797	299.44
426.257	281.54
426.717	266.04
427.177	262.34
427.637	245.54
428.097	268.14
428.556	273.04
429.016	292.24
429.476	297.74
429.936	306.24
430.396	299.64
430.856	315.44
431.315	336.44
431.775	358.14
432.235	406.74
432.694	382.14
433.154	386.44
433.614	404.14
434.073	359.64
434.533	307.94
434.993	297.44
435.452	302.54
435.912	303.64
436.371	297.44
436.83	290.64
437.29	286.04
437.749	262.54
438.209	271.64
438.668	288.44
439.127	297.34
439.587	277.94
440.046	262.14
440.505	280.64
440.964	283.14
441.424	328.54
441.883	311.94
442.342	279.94
442.801	251.84
443.26	258.34
443.719	254.94
444.178	251.84
444.637	234.94
445.096	245.14
445.555	247.94
446.014	250.34
446.473	255.64
446.932	263.34
447.391	251.14
447.849	259.04
448.308	250.34
448.767	253.84
449.226	260.44
449.685	264.84
450.143	278.84
450.602	271.34
451.061	258.24
451.519	265.84
451.978	263.34
452.436	256.94
452.895	253.94
453.353	274.84
453.812	265.44
454.27	257.34
454.729	262.74
455.187	256.64
455.646	262.44
456.104	269.14
456.562	278.74
457.021	287.04
457.479	278.64
457.937	286.94
458.395	284.34
458.854	269.14
459.312	274.04
459.77	289.04
460.228	280.34
460.686	263.74
461.144	276.34
461.602	272.94
462.06	270.94
462.518	281.54
462.976	279.94
463.434	286.14
463.892	285.24
464.35	292.74
464.808	310.64
465.266	284.74
465.724	294.34
466.181	302.64
466.639	300.34
467.097	315.94
467.555	326.84
468.012	323.94
468.47	324.34
468.928	355.34
469.385	363.24
469.843	366.54
470.3	358.24
470.758	377.44
471.215	387.94
471.673	410.44
472.13	419.14
472.588	428.24
473.045	397.34
473.503	403.54
473.96	416.54
474.417	430.84
474.875	448.34
475.332	484.54
475.789	478.64
476.246	485.74
476.704	505.64
477.161	519.64
477.618	532.64
478.075	565.44
478.532	620.64
478.989	673.54
479.446	763.44
479.903	747.84
480.36	784.74
480.817	830.74
481.274	919.44
481.731	1015.64
482.188	1086.24
482.645	1207.94
483.102	1293.84
483.558	1420.34
484.015	1473.64
484.472	1440.64
484.929	1396.14
485.385	1360.24
485.842	1339.24
486.299	1286.34
486.755	1219.24
487.212	1062.74
487.668	924.74
488.125	865.64
488.582	783.74
489.038	753.34
489.494	725.04
489.951	682.84
490.407	675.34
490.864	666.04
491.32	655.04
491.776	662.34
492.233	654.74
492.689	628.24
493.145	623.54
493.602	613.34
494.058	624.14
494.514	620.14
494.97	633.74
495.426	630.74
495.882	613.74
496.338	605.44
496.794	616.44
497.251	605.04
497.707	610.34
498.163	621.04
498.618	622.14
499.074	628.84
499.53	651.24
499.986	647.94
500.442	628.94
500.898	626.04
501.354	612.04
501.809	622.24
502.265	617.34
502.721	626.54
503.177	627.74
503.632	648.04
504.088	642.94
504.543	654.24
504.999	678.74
505.455	637.94
505.91	633.44
506.366	632.34
506.821	632.14
507.277	627.44
507.732	638.94
508.187	631.54
508.643	644.04
509.098	634.84
509.553	650.64
510.009	658.34
510.464	655.14
510.919	676.84
511.375	671.94
511.83	678.34
512.285	698.44
512.74	716.44
513.195	740.74
513.65	731.34
514.105	736.14
514.56	737.74
515.015	763.24
515.47	762.24
515.925	752.44
516.38	750.14
516.835	760.74
517.29	752.14
517.745	742.74
518.2	742.34
518.655	723.34
519.109	711.34
519.564	709.54
520.019	699.84
520.474	687.24
520.928	695.04
521.383	679.44
521.838	676.94
522.292	684.64
522.747	680.44
523.201	676.94
523.656	670.44
524.11	666.14
524.565	664.84
525.019	663.54
525.474	661.64
525.928	670.24
526.382	661.54
526.837	659.74
527.291	671.04
527.745	650.74
528.2	665.84
528.654	659.94
529.108	642.94
529.562	652.04
530.016	653.94
530.47	645.94
530.925	647.54
531.379	643.34
531.833	663.24
532.287	662.54
532.741	645.84
533.195	648.84
533.649	649.74
534.103	647.54
534.556	647.04
535.01	645.14
535.464	640.54
535.918	654.24
536.372	656.84
536.826	657.34
537.279	653.64
537.733	651.94
538.187	655.24
538.64	648.54
539.094	662.24
539.548	667.84
540.001	667.34
540.455	659.14
540.908	670.54
541.362	669.84
541.815	686.74
542.269	698.64
542.722	696.74
543.175	706.74
543.629	693.74
544.082	715.04
544.536	719.24
544.989	714.44
545.442	717.64
545.895	717.64
546.349	714.34
546.802	722.74
547.255	726.14
547.708	731.04
548.161	735.94
548.614	741.64
549.067	747.24
549.52	737.84
549.973	736.04
550.426	721.64
550.879	711.34
551.332	721.64
551.785	714.54
552.238	719.14
552.691	726.54
553.144	743.14
553.596	749.94
554.049	757.84
554.502	776.94
554.955	809.44
555.407	791.14
555.86	787.84
556.313	774.44
556.765	770.94
557.218	759.44
557.67	765.14
558.123	756.44
558.576	767.84
559.028	772.14
559.48	768.24
559.933	767.04
560.385	736.54
560.838	719.24
561.29	696.24
561.742	689.34
562.195	685.64
562.647	674.84
563.099	681.44
563.551	683.34
564.004	685.14
564.456	675.94
564.908	655.24
565.36	639.94
565.812	627.14
566.264	621.04
566.716	616.44
567.168	606.64
567.62	622.34
568.072	611.04
568.524	601.14
568.976	590.44
569.428	580.84
569.88	590.04
570.332	590.94
570.784	588.14
571.235	586.54
571.687	594.44
572.139	611.64
572.59	615.94
573.042	607.44
573.494	608.84
573.945	602.24
574.397	578.84
574.849	586.04
575.3	586.24
575.752	575.24
576.203	566.44
576.655	571.44
577.106	572.24
577.557	559.74
578.009	557.94
578.46	553.24
578.912	553.34
579.363	550.84
579.814	561.84
580.265	547.34
580.717	558.34
581.168	548.94
581.619	559.94
582.07	562.74
582.521	559.44
582.972	549.44
583.423	562.74
583.875	553.84
584.326	557.44
584.777	575.94
585.227	592.74
585.678	603.94
586.129	612.04
586.58	634.64
587.031	648.94
587.482	674.74
587.933	695.24
588.384	669.34
588.834	642.94
589.285	642.44
589.736	638.94
590.186	630.44
590.637	632.04
591.088	618.04
591.538	603.24
591.989	594.14
592.439	596.84
592.89	584.14
593.34	575.84
593.791	574.54
594.241	566.84
594.692	572.44
595.142	566.64
595.593	562.64
596.043	563.34
596.493	569.14
596.943	571.84
597.394	580.74
597.844	578.64
598.294	588.94
598.744	606.34
599.195	625.44
599.645	655.14
600.095	684.84
600.545	724.04
600.995	769.34
601.445	813.34
601.895	860.84
602.345	913.04
602.795	886.44
603.245	859.44
603.695	807.44
604.145	756.94
604.594	732.74
605.044	694.34
605.494	645.44
605.944	603.84
606.393	582.84
606.843	582.14
607.293	586.24
607.743	576.94
608.192	580.64
608.642	589.64
609.091	595.54
609.541	601.64
609.99	586.34
610.44	595.54
610.889	560.04
611.339	550.24
611.788	534.64
612.238	547.54
612.687	558.54
613.136	546.84
613.586	554.54
614.035	541.44
614.484	563.34
614.933	553.64
615.383	557.64
615.832	539.74
616.281	541.74
616.73	525.54
617.179	516.14
617.628	505.24
618.077	494.24
618.526	490.54
618.975	481.74
619.424	477.64
619.873	472.54
620.322	474.54
620.771	473.04
621.22	469.24
621.669	458.04
622.118	463.24
622.567	453.94
623.015	433.34
623.464	443.34
623.913	439.34
624.361	426.44
624.81	424.94
625.259	426.14
625.707	426.74
626.156	424.94
626.604	437.84
627.053	432.64
627.501	435.94
627.95	434.34
628.398	443.84
628.847	428.04
629.295	433.14
629.744	436.04
630.192	433.64
630.64	430.14
631.089	416.94
631.537	415.94
631.985	408.64
632.433	406.34
632.881	390.34
633.33	395.74
633.778	395.74
634.226	391.34
634.674	407.34
635.122	409.54
635.57	416.64
636.018	420.84
636.466	425.94
636.914	423.04
637.362	433.84
637.81	439.54
638.258	436.34
638.705	441.54
639.153	464.34
639.601	463.44
640.049	486.54
640.497	508.14
640.944	523.34
641.392	488.14
641.84	466.54
642.287	438.34
642.735	426.54
643.182	435.74
643.63	434.64
644.078	435.24
644.525	442.74
644.973	439.34
645.42	446.64
645.867	461.64
646.315	473.24
646.762	484.54
647.21	517.94
647.657	519.64
648.104	553.64
648.551	573.04
648.999	594.74
649.446	658.04
649.893	711.24
650.34	813.54
650.787	956.44
651.234	1153.84
651.682	1482.34
652.129	1978.34
652.576	2782.24
653.023	4072.24
653.47	5594.54
653.917	7051.64
654.363	8279.94
654.81	9380.04
655.257	8920.14
655.704	5922.64
656.151	3528.34
656.598	2334.64
657.044	1664.64
657.491	1283.24
657.938	1035.64
658.385	883.34
658.831	772.14
659.278	686.34
659.724	607.34
660.171	556.74
660.618	519.94
661.064	484.34
661.511	474.64
661.957	455.24
662.404	450.74
662.85	461.54
663.296	444.44
663.743	414.04
664.189	405.34
664.635	395.64
665.082	382.04
665.528	389.64
665.974	379.94
666.42	379.84
666.867	372.24
667.313	348.34
667.759	347.24
668.205	331.64
668.651	328.64
669.097	333.64
669.543	322.54
669.989	323.74
670.435	335.24
670.881	324.64
671.327	329.14
671.773	348.24
672.219	373.34
672.665	402.34
673.11	428.14
673.556	455.14
674.002	497.44
674.448	491.44
674.893	410.14
675.339	356.24
675.785	326.54
676.23	312.44
676.676	285.64
677.122	283.84
677.567	280.24
678.013	275.64
678.458	261.84
678.904	271.44
679.349	256.34
679.794	263.64
680.24	261.94
680.685	252.44
681.131	253.34
681.576	259.04
682.021	258.14
682.466	255.44
682.912	254.04
683.357	252.54
683.802	281.94
684.247	297.14
684.692	330.84
685.137	360.14
685.583	393.24
686.028	411.74
686.473	382.74
686.918	327.84
687.363	308.14
687.807	286.54
688.252	268.34
688.697	258.54
689.142	243.94
689.587	244.34
690.032	240.54
690.477	251.14
690.921	250.84
691.366	276.44
691.811	282.44
692.255	318.54
692.7	340.44
693.145	357.94
693.589	478.44
694.034	784.64
694.478	1113.44
694.923	1308.94
695.367	1738.54
695.812	915.14
696.256	371.64
696.701	276.34
697.145	246.44
697.59	236.14
698.034	235.34
698.478	230.84
698.922	237.04
699.367	232.74
699.811	241.14
700.255	255.84
700.699	274.14
701.143	299.74
701.588	334.74
702.032	374.54
702.476	378.14
702.92	366.24
703.364	353.04
703.808	452.04
704.252	722.84
704.696	1041.34
705.14	1241.04
705.584	1621.04
706.027	807.04
706.471	384.34
706.915	292.34
707.359	254.84
707.803	239.34
708.246	218.34
708.69	226.34
709.134	229.24
709.577	220.54
710.021	224.34
710.465	224.94
710.908	215.74
711.352	209.24
711.795	219.14
712.239	247.54
712.682	269.14
713.126	292.64
713.569	334.44
714.012	254.64
714.456	224.44
714.899	205.44
715.342	198.14
715.786	190.14
716.229	189.74
716.672	180.44
717.115	178.74
717.558	177.14
718.002	179.34
718.445	186.84
718.888	207.74
719.331	208.74
719.774	223.44
720.217	216.44
720.66	209.24
721.103	199.14
721.546	189.84
721.989	180.94
722.432	166.84
722.874	184.04
723.317	166.74
723.76	167.34
724.203	180.34
724.645	215.54
725.088	306.44
725.531	409.34
725.974	470.04
726.416	406.74
726.859	224.04
727.301	179.64
727.744	179.44
728.187	161.04
728.629	171.24
729.071	172.94
729.514	184.64
729.956	190.84
730.399	211.04
730.841	205.64
731.283	198.24
731.726	189.84
732.168	189.84
732.61	190.04
733.053	212.14
733.495	216.54
733.937	245.24
734.379	287.64
734.821	305.94
735.263	385.74
735.705	581.74
736.148	1080.94
736.59	1850.04
737.032	2312.94
737.474	1898.64
737.916	608.24
738.357	309.04
738.799	241.94
739.241	216.24
739.683	210.44
740.125	212.64
740.567	217.84
741.008	241.44
741.45	243.84
741.892	237.64
742.334	258.84
742.775	280.44
743.217	268.14
743.658	204.44
744.1	189.04
744.542	192.04
744.983	242.44
745.425	274.34
745.866	272.74
746.307	212.14
746.749	200.74
747.19	228.04
747.632	312.74
748.073	589.64
748.514	1286.44
748.956	2073.64
749.397	2602.84
749.838	2170.24
750.279	2269.74
750.72	1155.04
751.162	414.24
751.603	239.64
752.044	183.24
752.485	156.94
752.926	156.74
753.367	146.14
753.808	142.04
754.249	136.24
754.69	136.54
755.131	133.64
755.572	131.64
756.013	129.04
756.453	130.54
756.894	134.74
757.335	131.04
757.776	129.04
758.216	142.24
758.657	140.44
759.098	146.84
759.538	159.14
759.979	190.44
760.42	252.84
760.86	476.54
761.301	1262.24
761.741	3144.24
762.182	5009.44
762.622	3581.04
763.063	1014.74
763.503	409.34
