Data from 20171114-ORNL-Ar_H_NY_Subt18_08-04-21-989.txt Node
Date: Tue Nov 14 08:04:21 EST 2017
User: Ender
Spectrometer: HR+D1039
Trigger mode: 0
Integration Time (sec): 2.730000E-2
Scans to average: 10
Electric dark correction enabled: true
Nonlinearity correction enabled: false
Boxcar width: 0
XAxis mode: Wavelengths
Number of Pixels in Spectrum: 2048
>>>>>Begin Spectral Data<<<<<
187.836	-6.15
188.309	-6.15
188.782	-6.15
189.255	3.05
189.728	-3.35
190.201	4.65
190.674	0.95
191.147	3.35
191.619	-4.75
192.092	-0.65
192.565	9.75
193.038	-1.25
193.511	-0.05
193.984	-1.75
194.456	-1.65
194.929	2.15
195.402	-2.15
195.874	-2.15
196.347	-4.45
196.82	-11.95
197.292	5.95
197.765	-1.95
198.237	-6.45
198.71	-2.55
199.182	2.05
199.655	5.35
200.127	4.45
200.6	1.15
201.072	-2.85
201.544	-3.45
202.017	-3.55
202.489	4.15
202.961	-2.35
203.433	-1.85
203.906	-8.75
204.378	-2.25
204.85	-7.65
205.322	-5.45
205.794	1.95
206.266	-0.05
206.739	-6.65
207.211	-2.85
207.683	-10.35
208.155	-7.15
208.627	-3.75
209.099	1.85
209.57	-6.05
210.042	-6.05
210.514	-3.25
210.986	-5.35
211.458	-12.95
211.93	-5.75
212.402	0.75
212.873	-5.45
213.345	-3.55
213.817	-11.25
214.288	-4.25
214.76	-6.05
215.232	-4.75
215.703	-5.45
216.175	-3.45
216.646	-1.55
217.118	-12.05
217.589	-5.35
218.061	-2.05
218.532	-3.75
219.004	-5.25
219.475	0.85
219.946	-5.75
220.418	-7.75
220.889	-1.85
221.36	2.85
221.832	-4.95
222.303	-10.05
222.774	2.05
223.245	-12.05
223.717	-6.05
224.188	-7.55
224.659	-11.75
225.13	-3.05
225.601	-0.25
226.072	2.65
226.543	4.35
227.014	-1.25
227.485	1.05
227.956	-2.45
228.427	-1.25
228.898	-1.15
229.369	1.85
229.839	-5.05
230.31	-4.05
230.781	6.45
231.252	-3.75
231.722	-7.05
232.193	-5.25
232.664	-0.25
233.135	-2.05
233.605	1.05
234.076	-4.75
234.546	7.55
235.017	0.75
235.487	2.35
235.958	-1.75
236.428	-1.65
236.899	10.45
237.369	-0.15
237.84	-5.75
238.31	5.45
238.78	6.35
239.251	-1.15
239.721	0.55
240.191	3.85
240.662	4.85
241.132	2.75
241.602	-1.25
242.072	0.05
242.542	8.95
243.013	1.25
243.483	6.45
243.953	7.25
244.423	-1.05
244.893	0.65
245.363	1.45
245.833	-1.55
246.303	-3.65
246.773	4.25
247.243	8.05
247.712	8.85
248.182	7.85
248.652	9.95
249.122	-1.85
249.592	10.15
250.061	27.95
250.531	38.75
251.001	19.95
251.471	22.05
251.94	17.55
252.41	8.75
252.879	0.95
253.349	13.25
253.818	14.45
254.288	7.05
254.757	5.45
255.227	1.45
255.696	9.05
256.166	7.15
256.635	4.75
257.105	15.45
257.574	9.55
258.043	7.55
258.513	10.15
258.982	21.85
259.451	12.15
259.92	19.85
260.389	14.05
260.859	16.35
261.328	13.45
261.797	14.65
262.266	8.75
262.735	16.85
263.204	5.25
263.673	7.85
264.142	6.85
264.611	-6.95
265.08	-2.45
265.549	3.75
266.018	7.75
266.487	-4.05
266.955	0.05
267.424	7.85
267.893	9.05
268.362	3.45
268.83	8.95
269.299	12.55
269.768	11.65
270.236	12.45
270.705	5.45
271.174	5.55
271.642	10.95
272.111	12.25
272.579	20.55
273.048	23.85
273.516	36.15
273.985	28.75
274.453	25.25
274.922	19.25
275.39	13.35
275.858	-2.95
276.327	9.35
276.795	18.45
277.263	14.45
277.731	31.15
278.2	54.65
278.668	68.55
279.136	52.45
279.604	15.95
280.072	18.95
280.54	14.35
281.008	11.85
281.477	20.45
281.945	14.35
282.413	12.95
282.881	18.35
283.348	5.55
283.816	15.85
284.284	16.05
284.752	22.25
285.22	12.05
285.688	15.65
286.156	18.75
286.623	38.55
287.091	47.55
287.559	30.75
288.026	14.35
288.494	13.85
288.962	9.45
289.429	10.45
289.897	15.65
290.364	16.75
290.832	16.45
291.3	18.35
291.767	17.65
292.234	22.45
292.702	14.85
293.169	12.85
293.637	20.05
294.104	18.95
294.571	13.15
295.039	6.35
295.506	15.95
295.973	20.05
296.44	11.85
296.908	19.05
297.375	12.05
297.842	17.05
298.309	11.95
298.776	12.45
299.243	19.35
299.71	12.55
300.177	18.05
300.644	21.75
301.111	22.35
301.578	22.95
302.045	16.65
302.512	16.15
302.979	26.15
303.446	17.95
303.913	24.35
304.379	18.05
304.846	31.15
305.313	26.25
305.78	22.95
306.246	25.35
306.713	29.05
307.18	26.55
307.646	27.65
308.113	32.15
308.579	20.65
309.046	28.05
309.512	31.35
309.979	21.15
310.445	29.95
310.912	23.15
311.378	30.35
311.845	28.75
312.311	36.05
312.777	35.05
313.244	36.65
313.71	40.45
314.176	31.95
314.642	26.15
315.109	23.95
315.575	34.05
316.041	38.25
316.507	34.85
316.973	36.65
317.439	30.75
317.905	29.55
318.371	33.05
318.837	30.45
319.303	31.55
319.769	38.05
320.235	32.55
320.701	29.55
321.167	35.95
321.633	33.15
322.099	39.35
322.564	42.25
323.03	37.85
323.496	38.55
323.962	40.15
324.427	33.55
324.893	41.05
325.359	39.55
325.824	39.45
326.29	33.65
326.755	38.85
327.221	37.85
327.686	39.25
328.152	45.55
328.617	44.15
329.083	45.25
329.548	52.65
330.014	47.65
330.479	36.25
330.944	35.65
331.41	42.45
331.875	48.75
332.34	37.75
332.805	40.15
333.271	47.55
333.736	40.25
334.201	51.25
334.666	48.85
335.131	52.45
335.596	39.95
336.061	44.15
336.526	39.25
336.991	46.05
337.456	58.65
337.921	43.35
338.386	39.35
338.851	42.55
339.316	50.35
339.781	45.85
340.246	51.25
340.711	45.65
341.175	48.55
341.64	43.35
342.105	46.65
342.569	50.15
343.034	58.55
343.499	58.35
343.963	46.25
344.428	60.75
344.893	56.05
345.357	60.25
345.822	58.15
346.286	61.05
346.751	65.45
347.215	62.85
347.679	67.35
348.144	87.85
348.608	71.95
349.073	67.65
349.537	73.35
350.001	65.75
350.465	80.05
350.93	70.65
351.394	72.15
351.858	67.75
352.322	83.35
352.786	75.75
353.25	96.35
353.715	97.75
354.179	88.25
354.643	110.65
355.107	110.05
355.571	99.05
356.035	96.65
356.498	106.65
356.962	112.85
357.426	119.55
357.89	103.95
358.354	81.45
358.818	77.35
359.281	78.45
359.745	72.05
360.209	68.55
360.673	71.15
361.136	74.75
361.6	76.35
362.064	84.15
362.527	80.85
362.991	84.55
363.454	76.35
363.918	77.85
364.381	71.55
364.845	81.85
365.308	77.15
365.772	81.55
366.235	84.65
366.698	73.35
367.162	84.05
367.625	81.45
368.088	83.75
368.552	79.75
369.015	80.45
369.478	89.35
369.941	95.85
370.404	91.25
370.867	100.55
371.331	100.25
371.794	98.95
372.257	100.05
372.72	107.95
373.183	101.45
373.646	92.45
374.109	91.25
374.572	107.45
375.035	101.75
375.497	95.15
375.96	97.55
376.423	101.45
376.886	105.55
377.349	100.65
377.811	97.75
378.274	98.05
378.737	102.05
379.199	103.95
379.662	104.25
380.125	106.35
380.587	109.15
381.05	108.85
381.512	115.95
381.975	126.45
382.437	115.95
382.9	121.85
383.362	123.75
383.825	131.45
384.287	132.35
384.75	127.95
385.212	133.05
385.674	128.25
386.136	121.75
386.599	113.15
387.061	118.35
387.523	120.55
387.985	123.85
388.447	136.35
388.91	129.75
389.372	145.15
389.834	141.25
390.296	133.45
390.758	147.05
391.22	153.75
391.682	197.45
392.144	271.15
392.606	205.35
393.068	151.85
393.529	156.65
393.991	140.35
394.453	135.85
394.915	140.45
395.377	179.45
395.838	194.45
396.3	140.25
396.762	134.65
397.224	123.15
397.685	116.25
398.147	123.05
398.608	116.65
399.07	118.25
399.531	124.95
399.993	127.35
400.454	146.05
400.916	131.35
401.377	133.05
401.839	142.15
402.3	128.45
402.762	146.75
403.223	159.25
403.684	157.45
404.145	149.75
404.607	144.35
405.068	149.55
405.529	156.05
405.99	172.05
406.451	164.65
406.913	157.15
407.374	145.25
407.835	145.15
408.296	148.55
408.757	157.25
409.218	167.95
409.679	163.75
410.14	158.95
410.601	164.55
411.062	171.05
411.522	170.65
411.983	174.65
412.444	154.75
412.905	165.25
413.366	169.15
413.826	178.55
414.287	202.35
414.748	239.45
415.208	222.75
415.669	191.15
416.13	190.25
416.59	181.35
417.051	198.05
417.511	198.25
417.972	218.05
418.432	222.95
418.893	263.25
419.353	229.25
419.814	184.25
420.274	165.55
420.734	167.15
421.195	179.55
421.655	173.35
422.115	176.35
422.576	170.85
423.036	181.65
423.496	191.15
423.956	195.85
424.416	209.75
424.876	247.35
425.336	234.45
425.797	233.25
426.257	234.05
426.717	212.95
427.177	211.25
427.637	198.25
428.097	210.05
428.556	221.95
429.016	248.05
429.476	236.05
429.936	252.75
430.396	248.65
430.856	257.85
431.315	285.25
431.775	315.05
432.235	343.35
432.694	324.35
433.154	320.75
433.614	345.25
434.073	290.85
434.533	262.05
434.993	240.75
435.452	248.35
435.912	261.45
436.371	253.15
436.83	250.85
437.29	243.05
437.749	232.15
438.209	220.15
438.668	246.45
439.127	252.85
439.587	234.65
440.046	226.25
440.505	235.75
440.964	245.55
441.424	281.05
441.883	273.15
442.342	232.95
442.801	202.95
443.26	202.75
443.719	204.35
444.178	188.35
444.637	190.35
445.096	195.95
445.555	208.15
446.014	203.75
446.473	208.55
446.932	211.55
447.391	203.65
447.849	208.45
448.308	198.05
448.767	197.95
449.226	212.05
449.685	210.75
450.143	220.55
450.602	220.85
451.061	207.45
451.519	212.15
451.978	218.15
452.436	205.95
452.895	219.15
453.353	223.25
453.812	216.35
454.27	215.95
454.729	218.55
455.187	216.65
455.646	223.55
456.104	223.75
456.562	236.15
457.021	243.65
457.479	231.55
457.937	241.95
458.395	239.15
458.854	221.05
459.312	226.85
459.77	239.15
460.228	234.75
460.686	218.65
461.144	226.45
461.602	225.95
462.06	228.15
462.518	235.35
462.976	228.85
463.434	230.55
463.892	243.35
464.35	247.95
464.808	256.15
465.266	241.65
465.724	247.35
466.181	246.15
466.639	247.15
467.097	257.85
467.555	271.65
468.012	273.85
468.47	275.65
468.928	288.75
469.385	305.05
469.843	309.35
470.3	311.95
470.758	323.35
471.215	338.15
471.673	356.75
472.13	355.85
472.588	372.25
473.045	335.65
473.503	333.75
473.96	351.75
474.417	368.95
474.875	390.75
475.332	429.45
475.789	410.65
476.246	420.15
476.704	445.75
477.161	462.85
477.618	470.25
478.075	498.35
478.532	549.65
478.989	618.35
479.446	706.35
479.903	699.15
480.36	730.35
480.817	776.95
481.274	871.35
481.731	968.35
482.188	1054.85
482.645	1197.35
483.102	1284.35
483.558	1396.15
484.015	1464.55
484.472	1430.65
484.929	1397.25
485.385	1343.05
485.842	1308.55
486.299	1241.05
486.755	1177.85
487.212	995.45
487.668	840.55
488.125	772.35
488.582	708.45
489.038	686.15
489.494	650.35
489.951	635.15
490.407	609.95
490.864	597.65
491.32	580.05
491.776	579.85
492.233	575.65
492.689	549.55
493.145	540.45
493.602	531.25
494.058	558.55
494.514	552.65
494.97	573.55
495.426	583.95
495.882	560.55
496.338	563.35
496.794	566.85
497.251	567.55
497.707	575.95
498.163	574.25
498.618	587.65
499.074	573.55
499.53	615.15
499.986	611.35
500.442	583.65
500.898	572.35
501.354	562.05
501.809	577.15
502.265	586.95
502.721	597.25
503.177	602.25
503.632	602.25
504.088	608.05
504.543	637.65
504.999	638.25
505.455	595.45
505.91	578.75
506.366	578.55
506.821	566.45
507.277	563.25
507.732	558.55
508.187	564.05
508.643	565.15
509.098	576.05
509.553	593.55
510.009	599.45
510.464	611.25
510.919	615.95
511.375	620.55
511.83	634.35
512.285	647.15
512.74	682.85
513.195	697.85
513.65	710.85
514.105	701.05
514.56	698.55
515.015	709.95
515.47	732.25
515.925	716.15
516.38	716.55
516.835	718.55
517.29	714.55
517.745	703.85
518.2	687.15
518.655	670.55
519.109	672.45
519.564	663.45
520.019	657.25
520.474	650.25
520.928	653.55
521.383	646.05
521.838	637.85
522.292	634.05
522.747	636.45
523.201	634.25
523.656	620.25
524.11	615.45
524.565	616.45
525.019	620.85
525.474	633.55
525.928	630.25
526.382	616.65
526.837	630.45
527.291	635.75
527.745	622.15
528.2	620.15
528.654	621.45
529.108	606.65
529.562	615.45
530.016	613.15
530.47	621.35
530.925	620.15
531.379	627.25
531.833	636.25
532.287	618.55
532.741	631.45
533.195	635.65
533.649	640.55
534.103	641.15
534.556	634.65
535.01	639.55
535.464	641.85
535.918	636.45
536.372	643.35
536.826	639.15
537.279	628.55
537.733	634.75
538.187	635.65
538.64	637.05
539.094	646.15
539.548	645.05
540.001	637.35
540.455	651.05
540.908	649.95
541.362	655.75
541.815	662.95
542.269	678.45
542.722	673.35
543.175	689.95
543.629	691.25
544.082	697.65
544.536	706.65
544.989	703.45
545.442	704.55
545.895	697.05
546.349	702.05
546.802	697.95
547.255	705.25
547.708	718.65
548.161	719.15
548.614	726.95
549.067	746.95
549.52	728.95
549.973	718.75
550.426	718.95
550.879	703.15
551.332	708.15
551.785	707.15
552.238	712.45
552.691	718.25
553.144	740.85
553.596	747.85
554.049	766.85
554.502	785.25
554.955	799.85
555.407	796.55
555.86	781.15
556.313	783.55
556.765	780.25
557.218	784.25
557.67	773.95
558.123	768.25
558.576	771.45
559.028	764.35
559.48	766.25
559.933	768.45
560.385	739.75
560.838	713.25
561.29	686.35
561.742	684.65
562.195	670.95
562.647	670.05
563.099	678.65
563.551	672.05
564.004	690.65
564.456	681.05
564.908	673.95
565.36	651.25
565.812	642.05
566.264	633.05
566.716	633.75
567.168	617.45
567.62	637.55
568.072	614.45
568.524	609.75
568.976	605.25
569.428	590.45
569.88	580.05
570.332	591.05
570.784	599.65
571.235	596.85
571.687	601.55
572.139	603.05
572.59	615.45
573.042	614.95
573.494	612.65
573.945	612.55
574.397	600.15
574.849	598.05
575.3	602.65
575.752	596.65
576.203	584.55
576.655	594.95
577.106	583.15
577.557	576.95
578.009	576.15
578.46	583.35
578.912	567.45
579.363	570.65
579.814	577.05
580.265	561.85
580.717	576.85
581.168	575.85
581.619	587.35
582.07	582.95
582.521	581.55
582.972	569.65
583.423	586.85
583.875	584.25
584.326	600.15
584.777	639.75
585.227	703.25
585.678	773.85
586.129	854.05
586.58	926.65
587.031	1000.15
587.482	1144.05
587.933	1307.45
588.384	1136.65
588.834	840.05
589.285	697.35
589.736	672.45
590.186	667.45
590.637	653.75
591.088	633.95
591.538	628.55
591.989	626.35
592.439	627.65
592.89	612.95
593.34	609.65
593.791	604.65
594.241	605.15
594.692	607.75
595.142	595.45
595.593	589.65
596.043	603.95
596.493	601.35
596.943	598.35
597.394	611.35
597.844	606.15
598.294	616.85
598.744	631.85
599.195	659.45
599.645	699.05
600.095	717.95
600.545	775.75
600.995	813.05
601.445	870.15
601.895	922.75
602.345	965.15
602.795	945.65
603.245	903.55
603.695	850.75
604.145	809.65
604.594	777.95
605.044	734.45
605.494	669.45
605.944	641.65
606.393	635.85
606.843	619.65
607.293	623.25
607.743	615.65
608.192	632.45
608.642	638.75
609.091	641.65
609.541	648.55
609.99	647.05
610.44	641.45
610.889	607.45
611.339	590.55
611.788	577.85
612.238	589.65
612.687	606.45
613.136	608.35
613.586	622.85
614.035	613.15
614.484	639.15
614.933	631.45
615.383	637.75
615.832	612.65
616.281	601.05
616.73	582.45
617.179	563.45
617.628	540.65
618.077	516.15
618.526	523.95
618.975	513.75
619.424	514.15
619.873	511.65
620.322	521.85
620.771	503.95
621.22	500.15
621.669	498.05
622.118	490.45
622.567	488.05
623.015	481.25
623.464	474.15
623.913	460.05
624.361	458.95
624.81	457.55
625.259	459.55
625.707	467.25
626.156	462.35
626.604	471.15
627.053	466.85
627.501	472.95
627.95	472.45
628.398	487.05
628.847	479.95
629.295	468.85
629.744	475.65
630.192	477.85
630.64	462.05
631.089	463.95
631.537	482.65
631.985	479.55
632.433	496.05
632.881	490.75
633.33	537.85
633.778	525.05
634.226	469.95
634.674	472.35
635.122	474.35
635.57	493.15
636.018	513.35
636.466	480.85
636.914	455.55
637.362	469.75
637.81	476.85
638.258	483.45
638.705	472.35
639.153	507.15
639.601	509.55
640.049	530.05
640.497	554.45
640.944	572.25
641.392	530.35
641.84	495.25
642.287	484.45
642.735	473.45
643.182	472.25
643.63	474.85
644.078	463.85
644.525	491.75
644.973	498.55
645.42	494.65
645.867	511.55
646.315	515.25
646.762	538.15
647.21	564.95
647.657	583.75
648.104	613.35
648.551	628.35
648.999	688.75
649.446	745.25
649.893	820.45
650.34	947.75
650.787	1120.75
651.234	1396.15
651.682	1814.85
652.129	2463.15
652.576	3550.05
653.023	5274.45
653.47	7284.45
653.917	9248.85
654.363	10831.75
654.81	12215.45
655.257	11587.35
655.704	7517.65
656.151	4419.05
656.598	2830.45
657.044	2013.95
657.491	1540.15
657.938	1237.05
658.385	1021.25
658.831	898.15
659.278	786.85
659.724	703.35
660.171	652.15
660.618	592.25
661.064	556.35
661.511	542.95
661.957	525.25
662.404	520.85
662.85	521.65
663.296	499.45
663.743	464.85
664.189	437.35
664.635	435.25
665.082	424.05
665.528	429.85
665.974	420.25
666.42	421.45
666.867	412.85
667.313	392.75
667.759	397.15
668.205	390.85
668.651	396.35
669.097	398.95
669.543	407.25
669.989	386.15
670.435	365.35
670.881	352.05
671.327	361.65
671.773	383.45
672.219	393.25
672.665	440.05
673.11	472.85
673.556	509.85
674.002	552.55
674.448	542.95
674.893	450.85
675.339	384.65
675.785	358.05
676.23	342.55
676.676	314.95
677.122	310.15
677.567	302.35
678.013	298.15
678.458	290.15
678.904	287.75
679.349	267.05
679.794	288.55
680.24	277.95
680.685	280.45
681.131	279.45
681.576	276.25
682.021	281.45
682.466	282.45
682.912	279.65
683.357	282.35
683.802	300.15
684.247	330.95
684.692	358.25
685.137	392.25
685.583	447.55
686.028	453.25
686.473	411.45
686.918	367.35
687.363	334.15
687.807	314.35
688.252	299.85
688.697	282.25
689.142	274.85
689.587	271.45
690.032	257.55
690.477	281.65
690.921	274.85
691.366	317.65
691.811	320.55
692.255	354.65
692.7	377.45
693.145	401.15
693.589	539.75
694.034	881.95
694.478	1224.55
694.923	1431.25
695.367	1902.35
695.812	986.65
696.256	401.65
696.701	291.15
697.145	275.45
697.59	268.55
698.034	259.45
698.478	258.15
698.922	256.75
699.367	260.25
699.811	270.35
700.255	282.55
700.699	306.15
701.143	341.95
701.588	383.45
702.032	421.75
702.476	420.25
702.92	396.05
703.364	395.35
703.808	497.85
704.252	800.55
704.696	1153.85
705.14	1375.75
705.584	1777.45
706.027	868.65
706.471	419.55
706.915	316.35
707.359	278.55
707.803	251.95
708.246	247.65
708.69	245.55
709.134	256.95
709.577	252.65
710.021	251.45
710.465	244.85
710.908	246.65
711.352	246.55
711.795	243.15
712.239	282.65
712.682	311.45
713.126	340.05
713.569	374.75
714.012	302.05
714.456	259.65
714.899	236.95
715.342	218.35
715.786	214.35
716.229	207.75
716.672	209.05
717.115	202.95
717.558	202.25
718.002	204.15
718.445	200.65
718.888	228.15
719.331	239.25
719.774	243.75
720.217	244.15
720.66	224.25
721.103	217.15
721.546	201.35
721.989	199.65
722.432	185.95
722.874	191.35
723.317	186.25
723.76	182.95
724.203	208.25
724.645	248.05
725.088	348.55
725.531	457.45
725.974	526.35
726.416	445.55
726.859	243.95
727.301	190.55
727.744	190.15
728.187	183.95
728.629	191.25
729.071	193.75
729.514	205.05
729.956	207.15
730.399	227.95
730.841	232.25
731.283	216.55
731.726	212.25
732.168	210.95
732.61	213.35
733.053	226.15
733.495	247.15
733.937	278.25
734.379	314.35
734.821	347.95
735.263	420.95
735.705	649.45
736.148	1228.85
736.59	2053.75
737.032	2530.75
737.474	2053.45
737.916	648.95
738.357	339.25
738.799	262.05
739.241	234.95
739.683	223.25
740.125	232.65
740.567	241.05
741.008	253.65
741.45	248.75
741.892	251.45
742.334	277.25
742.775	291.65
743.217	272.45
743.658	215.25
744.1	206.55
744.542	210.85
744.983	245.15
745.425	276.15
745.866	285.15
746.307	227.85
746.749	225.85
747.19	250.35
747.632	344.25
748.073	671.85
748.514	1457.95
748.956	2307.55
749.397	2882.05
749.838	2387.25
750.279	2463.45
750.72	1233.05
751.162	443.45
751.603	258.15
752.044	196.55
752.485	176.95
752.926	171.75
753.367	159.25
753.808	160.65
754.249	150.95
754.69	150.25
755.131	143.15
755.572	144.95
756.013	145.05
756.453	147.25
756.894	150.55
757.335	151.45
757.776	158.25
758.216	151.15
758.657	156.65
759.098	162.85
759.538	176.35
759.979	206.55
760.42	287.25
760.86	540.95
761.301	1393.15
761.741	3497.15
762.182	5445.95
762.622	3809.95
