Data from 20171114-ORNL-Ar_H_NY_Subt18_08-04-06-976.txt Node
Date: Tue Nov 14 08:04:06 EST 2017
User: Ender
Spectrometer: HR+D1039
Trigger mode: 0
Integration Time (sec): 2.730000E-2
Scans to average: 10
Electric dark correction enabled: true
Nonlinearity correction enabled: false
Boxcar width: 0
XAxis mode: Wavelengths
Number of Pixels in Spectrum: 2048
>>>>>Begin Spectral Data<<<<<
187.836	0.84
188.309	0.84
188.782	0.84
189.255	0.34
189.728	-1.76
190.201	1.14
190.674	3.84
191.147	3.44
191.619	-10.56
192.092	0.64
192.565	5.64
193.038	-0.16
193.511	-3.46
193.984	7.74
194.456	-4.76
194.929	-1.16
195.402	-1.66
195.874	-0.16
196.347	-1.26
196.82	-6.96
197.292	7.74
197.765	-2.36
198.237	-3.16
198.71	1.04
199.182	2.04
199.655	-2.36
200.127	1.74
200.6	2.74
201.072	1.84
201.544	-5.36
202.017	-1.86
202.489	7.54
202.961	-0.96
203.433	-0.16
203.906	-3.76
204.378	-3.56
204.85	-3.66
205.322	-11.76
205.794	1.24
206.266	-4.86
206.739	-7.76
207.211	-0.46
207.683	-4.16
208.155	-6.16
208.627	0.94
209.099	-4.86
209.57	-8.26
210.042	-4.06
210.514	-0.96
210.986	-2.66
211.458	-8.36
211.93	0.74
212.402	2.54
212.873	-3.16
213.345	-5.66
213.817	-9.46
214.288	-1.56
214.76	-9.86
215.232	-7.46
215.703	-10.36
216.175	0.44
216.646	-2.76
217.118	-4.06
217.589	2.54
218.061	-0.86
218.532	-2.46
219.004	3.34
219.475	3.14
219.946	-1.46
220.418	-6.96
220.889	-0.46
221.36	4.04
221.832	-0.86
222.303	-1.36
222.774	2.24
223.245	-4.46
223.717	0.44
224.188	-6.16
224.659	-8.76
225.13	-9.76
225.601	-6.96
226.072	1.04
226.543	-3.76
227.014	4.54
227.485	1.34
227.956	-1.96
228.427	-4.46
228.898	2.54
229.369	-2.36
229.839	-4.96
230.31	-6.36
230.781	-2.26
231.252	-2.76
231.722	-2.66
232.193	-7.56
232.664	-2.16
233.135	-2.36
233.605	-1.06
234.076	-0.26
234.546	-1.06
235.017	1.24
235.487	0.94
235.958	2.34
236.428	-1.66
236.899	2.04
237.369	1.54
237.84	-1.86
238.31	9.94
238.78	1.74
239.251	-0.06
239.721	0.74
240.191	-0.36
240.662	-0.16
241.132	-1.36
241.602	-3.06
242.072	0.04
242.542	5.14
243.013	-7.06
243.483	2.04
243.953	-2.46
244.423	1.84
244.893	1.54
245.363	6.24
245.833	1.14
246.303	-1.36
246.773	6.14
247.243	2.34
247.712	3.74
248.182	8.54
248.652	9.04
249.122	-0.66
249.592	12.44
250.061	17.44
250.531	23.44
251.001	9.54
251.471	13.04
251.94	18.54
252.41	3.94
252.879	-2.56
253.349	7.24
253.818	7.74
254.288	-1.56
254.757	4.74
255.227	1.14
255.696	4.04
256.166	5.04
256.635	2.34
257.105	7.04
257.574	1.44
258.043	10.14
258.513	7.74
258.982	10.34
259.451	3.34
259.92	7.24
260.389	12.64
260.859	14.44
261.328	9.04
261.797	12.74
262.266	6.24
262.735	9.64
263.204	0.74
263.673	-0.36
264.142	7.44
264.611	-0.96
265.08	-2.36
265.549	1.64
266.018	3.84
266.487	4.44
266.955	-8.86
267.424	-1.66
267.893	3.24
268.362	-2.16
268.83	5.54
269.299	9.64
269.768	7.54
270.236	7.24
270.705	4.44
271.174	0.74
271.642	9.84
272.111	7.74
272.579	6.04
273.048	16.34
273.516	21.34
273.985	15.84
274.453	14.64
274.922	17.44
275.39	7.64
275.858	7.64
276.327	13.34
276.795	14.34
277.263	4.14
277.731	24.44
278.2	36.94
278.668	42.24
279.136	33.34
279.604	11.44
280.072	10.44
280.54	7.84
281.008	4.94
281.477	12.44
281.945	11.44
282.413	14.84
282.881	8.94
283.348	8.34
283.816	11.94
284.284	9.04
284.752	16.84
285.22	14.54
285.688	16.34
286.156	18.94
286.623	30.14
287.091	34.84
287.559	21.44
288.026	10.24
288.494	17.84
288.962	-1.56
289.429	2.34
289.897	15.54
290.364	13.54
290.832	13.04
291.3	7.14
291.767	15.84
292.234	16.04
292.702	12.44
293.169	9.14
293.637	15.94
294.104	16.74
294.571	6.74
295.039	12.14
295.506	5.54
295.973	11.24
296.44	18.14
296.908	14.54
297.375	15.14
297.842	13.54
298.309	7.54
298.776	6.74
299.243	14.74
299.71	4.54
300.177	19.54
300.644	16.24
301.111	15.44
301.578	18.54
302.045	10.14
302.512	19.34
302.979	16.44
303.446	15.94
303.913	10.84
304.379	11.94
304.846	18.84
305.313	21.74
305.78	17.04
306.246	23.64
306.713	15.94
307.18	16.94
307.646	21.44
308.113	20.44
308.579	19.04
309.046	19.74
309.512	19.24
309.979	13.54
310.445	18.54
310.912	22.44
311.378	28.04
311.845	21.24
312.311	24.84
312.777	25.44
313.244	18.14
313.71	26.94
314.176	25.34
314.642	23.94
315.109	20.84
315.575	26.54
316.041	33.44
316.507	19.14
316.973	25.84
317.439	26.44
317.905	27.74
318.371	28.64
318.837	29.54
319.303	24.54
319.769	25.64
320.235	21.74
320.701	34.34
321.167	26.74
321.633	25.04
322.099	31.34
322.564	35.94
323.03	33.04
323.496	27.24
323.962	28.74
324.427	26.34
324.893	41.14
325.359	31.64
325.824	33.34
326.29	23.54
326.755	30.44
327.221	32.94
327.686	31.54
328.152	32.54
328.617	32.04
329.083	38.44
329.548	36.54
330.014	38.84
330.479	30.54
330.944	32.04
331.41	28.24
331.875	30.54
332.34	40.94
332.805	35.74
333.271	40.84
333.736	37.04
334.201	41.24
334.666	49.14
335.131	43.24
335.596	49.94
336.061	44.04
336.526	35.14
336.991	38.84
337.456	50.34
337.921	37.14
338.386	33.14
338.851	37.14
339.316	34.04
339.781	37.54
340.246	42.04
340.711	38.54
341.175	41.34
341.64	35.34
342.105	38.84
342.569	48.04
343.034	50.54
343.499	46.34
343.963	46.24
344.428	52.14
344.893	53.14
345.357	49.14
345.822	51.24
346.286	53.34
346.751	54.84
347.215	59.94
347.679	57.34
348.144	75.54
348.608	59.14
349.073	50.74
349.537	58.04
350.001	66.14
350.465	57.54
350.93	62.24
351.394	63.44
351.858	51.54
352.322	72.24
352.786	63.84
353.25	76.84
353.715	76.84
354.179	73.54
354.643	95.84
355.107	96.04
355.571	85.94
356.035	83.84
356.498	90.54
356.962	86.24
357.426	102.84
357.89	86.44
358.354	72.34
358.818	65.54
359.281	69.54
359.745	62.84
360.209	60.14
360.673	67.74
361.136	64.04
361.6	69.84
362.064	66.74
362.527	73.84
362.991	73.84
363.454	67.24
363.918	61.04
364.381	64.84
364.845	70.64
365.308	75.34
365.772	73.74
366.235	68.24
366.698	68.14
367.162	64.24
367.625	70.84
368.088	78.24
368.552	76.24
369.015	75.74
369.478	76.64
369.941	83.04
370.404	80.14
370.867	82.64
371.331	85.44
371.794	91.54
372.257	87.44
372.72	98.74
373.183	88.84
373.646	89.64
374.109	88.04
374.572	91.14
375.035	79.44
375.497	91.14
375.96	94.84
376.423	86.54
376.886	95.54
377.349	95.44
377.811	86.84
378.274	96.44
378.737	91.44
379.199	100.14
379.662	87.94
380.125	98.94
380.587	101.44
381.05	105.04
381.512	104.74
381.975	115.34
382.437	109.84
382.9	104.74
383.362	114.24
383.825	118.04
384.287	124.34
384.75	118.04
385.212	120.24
385.674	115.44
386.136	116.74
386.599	104.94
387.061	107.54
387.523	118.34
387.985	113.74
388.447	126.74
388.91	124.94
389.372	129.94
389.834	122.24
390.296	115.04
390.758	127.34
391.22	138.64
391.682	173.84
392.144	238.74
392.606	196.24
393.068	139.14
393.529	142.54
393.991	127.74
394.453	122.94
394.915	127.44
395.377	161.64
395.838	179.04
396.3	132.14
396.762	126.04
397.224	122.74
397.685	114.44
398.147	113.84
398.608	113.04
399.07	115.04
399.531	114.84
399.993	120.44
400.454	128.24
400.916	132.74
401.377	125.54
401.839	127.54
402.3	127.04
402.762	140.64
403.223	156.84
403.684	143.14
404.145	138.64
404.607	135.14
405.068	138.84
405.529	144.34
405.99	154.44
406.451	148.44
406.913	149.44
407.374	141.64
407.835	146.44
408.296	143.64
408.757	151.14
409.218	157.14
409.679	150.94
410.14	158.64
410.601	151.74
411.062	164.44
411.522	161.84
411.983	166.94
412.444	156.64
412.905	152.84
413.366	158.54
413.826	174.44
414.287	194.24
414.748	229.24
415.208	219.24
415.669	184.34
416.13	185.24
416.59	177.24
417.051	190.74
417.511	196.14
417.972	207.74
418.432	213.34
418.893	252.24
419.353	226.14
419.814	173.54
420.274	164.64
420.734	158.54
421.195	171.94
421.655	162.54
422.115	167.84
422.576	166.14
423.036	169.84
423.496	186.94
423.956	188.04
424.416	203.44
424.876	230.24
425.336	226.94
425.797	229.44
426.257	214.54
426.717	199.94
427.177	204.74
427.637	202.54
428.097	206.94
428.556	213.24
429.016	235.14
429.476	224.54
429.936	237.44
430.396	248.84
430.856	245.14
431.315	264.24
431.775	296.64
432.235	323.84
432.694	298.34
433.154	307.34
433.614	317.74
434.073	283.54
434.533	244.14
434.993	229.14
435.452	240.04
435.912	238.74
436.371	240.94
436.83	234.24
437.29	227.14
437.749	206.34
438.209	209.04
438.668	220.04
439.127	236.84
439.587	220.54
440.046	216.04
440.505	219.84
440.964	227.64
441.424	255.04
441.883	255.14
442.342	222.34
442.801	196.24
443.26	188.64
443.719	192.34
444.178	191.84
444.637	188.74
445.096	182.14
445.555	190.74
446.014	197.44
446.473	198.34
446.932	200.84
447.391	193.04
447.849	194.84
448.308	195.74
448.767	191.44
449.226	211.34
449.685	205.14
450.143	218.74
450.602	204.74
451.061	196.04
451.519	200.64
451.978	203.64
452.436	202.64
452.895	199.14
453.353	215.84
453.812	208.84
454.27	206.84
454.729	210.14
455.187	210.44
455.646	219.14
456.104	209.74
456.562	219.54
457.021	224.74
457.479	221.64
457.937	229.84
458.395	229.04
458.854	215.94
459.312	220.94
459.77	229.04
460.228	212.24
460.686	205.84
461.144	223.84
461.602	215.04
462.06	215.94
462.518	215.64
462.976	223.44
463.434	223.74
463.892	232.24
464.35	230.54
464.808	246.74
465.266	235.64
465.724	234.84
466.181	237.54
466.639	235.94
467.097	251.54
467.555	257.14
468.012	260.54
468.47	269.34
468.928	274.44
469.385	290.64
469.843	296.34
470.3	294.94
470.758	306.44
471.215	313.94
471.673	331.54
472.13	340.14
472.588	344.94
473.045	318.54
473.503	326.74
473.96	341.64
474.417	347.04
474.875	365.14
475.332	399.64
475.789	388.54
476.246	401.54
476.704	421.44
477.161	439.44
477.618	443.84
478.075	481.34
478.532	514.54
478.989	571.34
479.446	660.54
479.903	655.34
480.36	700.84
480.817	751.34
481.274	820.74
481.731	921.74
482.188	993.14
482.645	1115.14
483.102	1202.74
483.558	1306.74
484.015	1373.14
484.472	1369.04
484.929	1314.84
485.385	1270.24
485.842	1240.24
486.299	1180.54
486.755	1093.64
487.212	944.64
487.668	799.74
488.125	745.04
488.582	678.34
489.038	651.44
489.494	616.54
489.951	602.14
490.407	575.84
490.864	559.44
491.32	555.94
491.776	553.94
492.233	550.64
492.689	518.44
493.145	524.44
493.602	511.24
494.058	528.44
494.514	528.24
494.97	539.54
495.426	550.44
495.882	537.34
496.338	538.54
496.794	534.54
497.251	524.34
497.707	551.94
498.163	548.34
498.618	547.44
499.074	543.24
499.53	578.24
499.986	562.64
500.442	551.74
500.898	537.84
501.354	532.04
501.809	548.84
502.265	539.64
502.721	564.64
503.177	569.94
503.632	567.64
504.088	562.24
504.543	598.24
504.999	589.34
505.455	565.04
505.91	542.44
506.366	555.84
506.821	539.14
507.277	529.34
507.732	536.54
508.187	544.84
508.643	554.44
509.098	544.24
509.553	565.14
510.009	566.74
510.464	574.44
510.919	586.44
511.375	591.34
511.83	597.94
512.285	610.44
512.74	643.34
513.195	658.44
513.65	653.94
514.105	657.64
514.56	666.84
515.015	675.84
515.47	692.44
515.925	682.34
516.38	678.74
516.835	674.64
517.29	663.64
517.745	669.34
518.2	646.14
518.655	640.04
519.109	638.84
519.564	631.24
520.019	625.54
520.474	612.74
520.928	622.94
521.383	617.64
521.838	608.64
522.292	605.24
522.747	606.84
523.201	597.04
523.656	594.44
524.11	589.54
524.565	595.84
525.019	586.74
525.474	587.34
525.928	608.14
526.382	588.44
526.837	599.14
527.291	595.74
527.745	589.84
528.2	591.34
528.654	586.74
529.108	582.74
529.562	580.64
530.016	583.74
530.47	581.14
530.925	588.74
531.379	589.34
531.833	604.74
532.287	592.34
532.741	601.54
533.195	596.94
533.649	600.14
534.103	605.24
534.556	599.64
535.01	600.34
535.464	597.04
535.918	611.64
536.372	597.34
536.826	608.44
537.279	596.94
537.733	589.64
538.187	598.54
538.64	587.74
539.094	608.54
539.548	613.34
540.001	612.74
540.455	603.44
540.908	608.74
541.362	623.44
541.815	626.24
542.269	622.84
542.722	637.54
543.175	647.84
543.629	642.34
544.082	654.14
544.536	651.94
544.989	661.14
545.442	654.74
545.895	663.64
546.349	663.64
546.802	653.74
547.255	657.34
547.708	673.64
548.161	681.14
548.614	691.84
549.067	694.64
549.52	685.04
549.973	675.34
550.426	674.04
550.879	662.34
551.332	664.34
551.785	664.64
552.238	672.84
552.691	676.24
553.144	694.34
553.596	696.64
554.049	706.44
554.502	745.74
554.955	752.24
555.407	753.64
555.86	749.14
556.313	735.04
556.765	731.14
557.218	734.84
557.67	725.74
558.123	715.94
558.576	729.24
559.028	717.24
559.48	730.44
559.933	720.74
560.385	695.74
560.838	677.14
561.29	646.14
561.742	649.04
562.195	635.94
562.647	642.74
563.099	635.74
563.551	636.74
564.004	649.74
564.456	635.74
564.908	628.34
565.36	617.74
565.812	607.24
566.264	598.84
566.716	592.24
567.168	588.74
567.62	592.44
568.072	575.14
568.524	563.14
568.976	559.64
569.428	544.14
569.88	551.04
570.332	558.74
570.784	555.64
571.235	555.44
571.687	567.74
572.139	578.04
572.59	577.34
573.042	569.74
573.494	579.94
573.945	567.64
574.397	554.04
574.849	563.54
575.3	556.64
575.752	549.54
576.203	550.44
576.655	560.74
577.106	547.54
577.557	533.24
578.009	539.04
578.46	545.14
578.912	538.44
579.363	543.04
579.814	532.14
580.265	531.54
580.717	539.34
581.168	542.14
581.619	545.24
582.07	548.14
582.521	545.54
582.972	539.54
583.423	539.24
583.875	544.14
584.326	559.64
584.777	598.04
585.227	661.54
585.678	726.84
586.129	792.84
586.58	848.54
587.031	925.44
587.482	1055.64
587.933	1194.94
588.384	1053.34
588.834	780.14
589.285	638.84
589.736	627.74
590.186	621.14
590.637	614.74
591.088	596.64
591.538	590.34
591.989	578.04
592.439	582.84
592.89	576.74
593.34	564.74
593.791	573.64
594.241	559.04
594.692	569.34
595.142	562.14
595.593	555.04
596.043	558.54
596.493	573.14
596.943	567.04
597.394	570.94
597.844	568.54
598.294	581.14
598.744	602.54
599.195	608.94
599.645	640.54
600.095	677.34
600.545	707.14
600.995	758.54
601.445	808.24
601.895	867.74
602.345	902.04
602.795	878.64
603.245	846.74
603.695	812.04
604.145	756.94
604.594	724.24
605.044	675.84
605.494	628.34
605.944	587.64
606.393	588.14
606.843	576.64
607.293	575.64
607.743	564.44
608.192	582.64
608.642	598.34
609.091	590.74
609.541	604.34
609.99	597.54
610.44	592.94
610.889	551.94
611.339	548.44
611.788	530.74
612.238	548.34
612.687	560.34
613.136	559.44
613.586	576.04
614.035	570.24
614.484	592.14
614.933	581.94
615.383	583.04
615.832	580.14
616.281	557.04
616.73	528.74
617.179	522.44
617.628	504.84
618.077	495.34
618.526	482.14
618.975	477.34
619.424	481.44
619.873	478.34
620.322	482.04
620.771	465.74
621.22	463.94
621.669	461.74
622.118	454.54
622.567	451.54
623.015	438.04
623.464	441.54
623.913	437.74
624.361	425.54
624.81	430.64
625.259	428.14
625.707	421.34
626.156	424.64
626.604	440.44
627.053	440.24
627.501	429.44
627.95	439.44
628.398	445.44
628.847	437.94
629.295	442.54
629.744	444.44
630.192	433.84
630.64	435.34
631.089	433.44
631.537	437.14
631.985	446.44
632.433	456.54
632.881	456.84
633.33	487.24
633.778	471.14
634.226	428.24
634.674	429.94
635.122	437.84
635.57	454.84
636.018	472.44
636.466	448.14
636.914	438.44
637.362	439.84
637.81	438.64
638.258	446.64
638.705	432.64
639.153	467.34
639.601	462.04
640.049	485.34
640.497	518.84
640.944	533.14
641.392	495.34
641.84	475.54
642.287	442.44
642.735	431.34
643.182	442.34
643.63	434.04
644.078	436.14
644.525	453.94
644.973	449.04
645.42	446.04
645.867	468.64
646.315	483.64
646.762	493.34
647.21	515.74
647.657	538.54
648.104	571.24
648.551	577.64
648.999	636.24
649.446	687.84
649.893	751.54
650.34	856.04
650.787	1017.14
651.234	1268.04
651.682	1644.54
652.129	2245.64
652.576	3208.24
653.023	4748.14
653.47	6609.54
653.917	8357.34
654.363	9833.14
654.81	11170.54
655.257	10601.44
655.704	6894.74
656.151	4033.94
656.598	2612.24
657.044	1844.34
657.491	1414.64
657.938	1139.54
658.385	936.74
658.831	818.34
659.278	733.34
659.724	642.14
660.171	599.94
660.618	543.94
661.064	507.44
661.511	482.04
661.957	481.54
662.404	475.74
662.85	473.94
663.296	459.14
663.743	422.54
664.189	415.14
664.635	405.94
665.082	405.24
665.528	388.14
665.974	386.34
666.42	374.54
666.867	377.74
667.313	357.44
667.759	355.24
668.205	364.14
668.651	365.44
669.097	363.14
669.543	371.24
669.989	352.74
670.435	338.24
670.881	330.34
671.327	341.74
671.773	355.64
672.219	364.94
672.665	407.74
673.11	430.14
673.556	471.24
674.002	507.34
674.448	500.14
674.893	412.44
675.339	357.74
675.785	335.64
676.23	314.24
676.676	296.64
677.122	281.54
677.567	276.74
678.013	275.84
678.458	271.14
678.904	268.14
679.349	266.84
679.794	260.74
680.24	260.64
680.685	256.84
681.131	258.04
681.576	260.84
682.021	268.54
682.466	258.04
682.912	257.84
683.357	264.74
683.802	287.74
684.247	303.24
684.692	330.44
685.137	371.44
685.583	403.54
686.028	414.44
686.473	389.84
686.918	333.14
687.363	303.84
687.807	292.64
688.252	269.84
688.697	266.74
689.142	249.94
689.587	238.24
690.032	233.54
690.477	243.84
690.921	260.44
691.366	282.04
691.811	302.54
692.255	324.34
692.7	343.64
693.145	373.34
693.589	495.24
694.034	807.44
694.478	1115.34
694.923	1321.04
695.367	1759.74
695.812	909.34
696.256	378.24
696.701	273.34
697.145	255.24
697.59	248.24
698.034	239.14
698.478	239.84
698.922	245.54
699.367	244.24
699.811	247.84
700.255	264.14
700.699	284.64
701.143	316.04
701.588	347.64
702.032	391.04
702.476	380.54
702.92	362.94
703.364	368.14
703.808	455.94
704.252	734.04
704.696	1060.24
705.14	1263.74
705.584	1640.54
706.027	817.14
706.471	387.74
706.915	291.74
707.359	255.04
707.803	230.24
708.246	228.24
708.69	232.94
709.134	240.94
709.577	229.34
710.021	234.04
710.465	224.64
710.908	216.64
711.352	216.84
711.795	232.14
712.239	260.24
712.682	275.44
713.126	312.94
713.569	350.54
714.012	280.04
714.456	241.24
714.899	222.24
715.342	205.34
715.786	200.54
716.229	186.84
716.672	189.24
717.115	184.44
717.558	182.04
718.002	185.34
718.445	189.84
718.888	210.84
719.331	220.14
719.774	230.44
720.217	233.14
720.66	211.44
721.103	193.34
721.546	188.44
721.989	183.64
722.432	172.44
722.874	177.64
723.317	176.74
723.76	172.24
724.203	186.84
724.645	230.94
725.088	315.34
725.531	415.44
725.974	477.94
726.416	404.74
726.859	223.14
727.301	187.74
727.744	176.84
728.187	169.74
728.629	177.64
729.071	172.54
729.514	186.14
729.956	200.74
730.399	211.04
730.841	215.44
731.283	196.34
731.726	196.54
732.168	188.84
732.61	196.94
733.053	211.04
733.495	228.14
733.937	255.24
734.379	295.14
734.821	315.24
735.263	396.04
735.705	591.24
736.148	1107.14
736.59	1888.94
737.032	2353.24
737.474	1927.74
737.916	598.74
738.357	311.54
738.799	247.34
739.241	214.34
739.683	202.74
740.125	216.54
740.567	216.64
741.008	239.34
741.45	237.24
741.892	233.44
742.334	254.84
742.775	273.64
743.217	258.44
743.658	197.14
744.1	180.14
744.542	195.14
744.983	232.64
745.425	256.24
745.866	264.34
746.307	215.04
746.749	204.14
747.19	238.74
747.632	330.04
748.073	609.34
748.514	1328.14
748.956	2120.54
749.397	2652.84
749.838	2223.54
750.279	2303.94
750.72	1136.44
751.162	412.74
751.603	243.94
752.044	189.94
752.485	160.14
752.926	153.94
753.367	146.94
753.808	141.34
754.249	140.74
754.69	135.94
755.131	134.24
755.572	131.74
756.013	137.24
756.453	135.94
756.894	133.94
757.335	138.54
757.776	143.24
758.216	146.44
758.657	152.44
759.098	154.04
759.538	168.74
759.979	192.54
760.42	270.44
760.86	499.34
761.301	1286.04
761.741	3245.54
762.182	5087.54
762.622	3580.44
763.063	1006.54
763.503	407.04
763.943	259.34
764.384	246.84
