Data from 20171114-ORNL-Ar_H_NY_Subt18_08-03-32-308.txt Node
Date: Tue Nov 14 08:03:32 EST 2017
User: Ender
Spectrometer: HR+D1039
Trigger mode: 0
Integration Time (sec): 2.730000E-2
Scans to average: 10
Electric dark correction enabled: true
Nonlinearity correction enabled: false
Boxcar width: 0
XAxis mode: Wavelengths
Number of Pixels in Spectrum: 2048
>>>>>Begin Spectral Data<<<<<
187.836	-1.44
188.309	-1.44
188.782	-1.44
189.255	0.76
189.728	-0.14
190.201	4.86
190.674	4.26
191.147	-2.34
191.619	-8.64
192.092	-1.24
192.565	2.96
193.038	-1.04
193.511	-1.84
193.984	-1.14
194.456	1.56
194.929	3.56
195.402	-1.84
195.874	1.66
196.347	-0.34
196.82	-4.34
197.292	4.06
197.765	-2.94
198.237	-6.74
198.71	2.96
199.182	-4.74
199.655	-6.44
200.127	4.16
200.6	-6.44
201.072	-0.94
201.544	-0.94
202.017	-3.94
202.489	-3.84
202.961	-3.34
203.433	-2.44
203.906	-8.64
204.378	-10.74
204.85	-11.24
205.322	-9.54
205.794	-2.54
206.266	-9.04
206.739	-11.44
207.211	4.96
207.683	-14.54
208.155	-6.54
208.627	-4.04
209.099	-6.04
209.57	-6.44
210.042	-4.74
210.514	-3.34
210.986	-3.84
211.458	-11.84
211.93	-5.94
212.402	0.26
212.873	-4.24
213.345	-8.34
213.817	-10.14
214.288	-6.64
214.76	-8.24
215.232	-5.04
215.703	-7.04
216.175	0.46
216.646	-4.14
217.118	-11.14
217.589	-10.04
218.061	-7.84
218.532	-3.44
219.004	-1.84
219.475	-7.24
219.946	0.36
220.418	-1.54
220.889	0.36
221.36	4.36
221.832	-3.04
222.303	-6.24
222.774	3.26
223.245	-12.94
223.717	-9.84
224.188	-3.44
224.659	-5.84
225.13	-8.54
225.601	-3.44
226.072	-5.04
226.543	-0.34
227.014	-4.54
227.485	-7.14
227.956	-0.34
228.427	-1.64
228.898	1.46
229.369	2.96
229.839	-7.34
230.31	-11.64
230.781	3.86
231.252	-3.04
231.722	-7.04
232.193	-10.14
232.664	-7.34
233.135	-1.84
233.605	-4.44
234.076	-10.24
234.546	-5.94
235.017	0.76
235.487	-2.74
235.958	-2.94
236.428	-7.84
236.899	0.86
237.369	-8.34
237.84	-7.34
238.31	6.46
238.78	-5.84
239.251	0.66
239.721	-1.74
240.191	-4.24
240.662	-5.34
241.132	-3.54
241.602	-8.84
242.072	-5.34
242.542	0.86
243.013	-5.64
243.483	2.46
243.953	-0.54
244.423	-3.54
244.893	-8.84
245.363	1.46
245.833	-2.64
246.303	-3.64
246.773	1.66
247.243	-4.24
247.712	-1.84
248.182	-1.34
248.652	-2.34
249.122	-14.04
249.592	2.46
250.061	0.66
250.531	7.16
251.001	-2.34
251.471	-4.14
251.94	5.66
252.41	-5.94
252.879	-15.04
253.349	4.26
253.818	3.46
254.288	-3.74
254.757	-4.24
255.227	-7.34
255.696	-7.84
256.166	-0.84
256.635	-4.24
257.105	1.56
257.574	-0.74
258.043	-4.44
258.513	-8.24
258.982	-3.54
259.451	-8.94
259.92	-0.34
260.389	-0.64
260.859	1.46
261.328	-3.44
261.797	-4.94
262.266	-6.44
262.735	-2.54
263.204	-3.34
263.673	-8.54
264.142	-7.14
264.611	-6.04
265.08	-9.84
265.549	-3.54
266.018	-3.44
266.487	-9.54
266.955	-7.94
267.424	-10.24
267.893	-2.24
268.362	-13.14
268.83	-2.64
269.299	-2.24
269.768	-8.34
270.236	-4.94
270.705	-2.64
271.174	-5.24
271.642	-9.24
272.111	-3.94
272.579	-5.64
273.048	-7.74
273.516	-3.94
273.985	-4.24
274.453	-2.94
274.922	-1.74
275.39	-4.64
275.858	-14.94
276.327	-8.74
276.795	8.46
277.263	-4.34
277.731	2.56
278.2	-4.94
278.668	-6.34
279.136	1.36
279.604	-7.74
280.072	0.86
280.54	-9.24
281.008	-7.14
281.477	-0.64
281.945	-3.24
282.413	-3.14
282.881	-0.94
283.348	-3.74
283.816	-6.84
284.284	-1.44
284.752	4.66
285.22	0.76
285.688	-3.44
286.156	-0.24
286.623	5.06
287.091	-9.44
287.559	-0.74
288.026	-6.94
288.494	-3.84
288.962	-15.04
289.429	-10.04
289.897	2.46
290.364	-0.54
290.832	1.86
291.3	-4.64
291.767	3.56
292.234	-0.64
292.702	-3.44
293.169	-2.14
293.637	1.26
294.104	-1.74
294.571	-12.64
295.039	-3.24
295.506	-1.44
295.973	-3.34
296.44	-5.44
296.908	-7.24
297.375	-7.84
297.842	-1.24
298.309	-6.14
298.776	-12.74
299.243	0.76
299.71	-14.84
300.177	-5.34
300.644	-2.24
301.111	-4.24
301.578	-7.84
302.045	-5.34
302.512	-4.24
302.979	-0.44
303.446	-5.94
303.913	-5.54
304.379	-8.14
304.846	-2.44
305.313	2.26
305.78	-8.24
306.246	4.56
306.713	-4.44
307.18	-1.04
307.646	-4.64
308.113	-2.94
308.579	-7.74
309.046	-2.04
309.512	-5.44
309.979	-11.04
310.445	0.76
310.912	-1.14
311.378	4.66
311.845	-0.54
312.311	3.86
312.777	-1.84
313.244	-2.94
313.71	3.46
314.176	-5.14
314.642	-0.84
315.109	-7.84
315.575	1.96
316.041	0.16
316.507	-8.04
316.973	-0.64
317.439	1.36
317.905	3.16
318.371	4.56
318.837	1.66
319.303	-2.64
319.769	-0.04
320.235	-4.54
320.701	-0.04
321.167	-5.54
321.633	-6.44
322.099	2.16
322.564	2.66
323.03	3.86
323.496	1.36
323.962	-4.44
324.427	-2.44
324.893	-2.94
325.359	-6.74
325.824	-3.64
326.29	-2.14
326.755	-4.24
327.221	1.66
327.686	-3.84
328.152	7.46
328.617	-5.14
329.083	7.06
329.548	9.66
330.014	-0.54
330.479	1.16
330.944	-3.24
331.41	-3.54
331.875	-2.94
332.34	-2.54
332.805	-2.74
333.271	-0.64
333.736	-5.54
334.201	4.26
334.666	4.16
335.131	3.96
335.596	4.46
336.061	-2.94
336.526	-4.24
336.991	-3.64
337.456	10.16
337.921	-1.74
338.386	-1.64
338.851	-1.74
339.316	7.96
339.781	-0.04
340.246	1.76
340.711	-2.34
341.175	0.06
341.64	-4.84
342.105	-2.54
342.569	1.86
343.034	3.36
343.499	-2.84
343.963	2.36
344.428	11.26
344.893	4.76
345.357	3.76
345.822	6.26
346.286	0.36
346.751	5.46
347.215	-1.84
347.679	-1.94
348.144	7.36
348.608	-0.44
349.073	-1.44
349.537	-3.34
350.001	2.86
350.465	5.36
350.93	3.76
351.394	12.56
351.858	5.26
352.322	10.16
352.786	3.66
353.25	6.06
353.715	7.56
354.179	5.76
354.643	14.36
355.107	8.96
355.571	4.26
356.035	5.06
356.498	4.46
356.962	-1.94
357.426	11.56
357.89	0.96
358.354	10.26
358.818	11.36
359.281	4.76
359.745	3.56
360.209	1.26
360.673	2.16
361.136	-0.04
361.6	15.06
362.064	4.66
362.527	8.36
362.991	11.16
363.454	0.66
363.918	-0.54
364.381	-3.94
364.845	3.26
365.308	7.66
365.772	12.56
366.235	7.46
366.698	0.96
367.162	-7.44
367.625	-1.34
368.088	-1.04
368.552	4.36
369.015	0.36
369.478	12.16
369.941	15.06
370.404	2.86
370.867	11.56
371.331	5.76
371.794	8.46
372.257	-0.24
372.72	10.76
373.183	6.36
373.646	3.76
374.109	7.06
374.572	6.66
375.035	3.56
375.497	2.46
375.96	5.86
376.423	2.96
376.886	10.86
377.349	3.96
377.811	3.16
378.274	7.56
378.737	-0.04
379.199	6.06
379.662	4.16
380.125	8.36
380.587	0.26
381.05	3.06
381.512	1.86
381.975	10.86
382.437	12.66
382.9	4.26
383.362	10.06
383.825	5.26
384.287	12.36
384.75	1.46
385.212	11.16
385.674	15.16
386.136	13.36
386.599	6.86
387.061	7.16
387.523	8.06
387.985	11.46
388.447	14.06
388.91	8.16
389.372	11.56
389.834	14.16
390.296	2.16
390.758	7.36
391.22	6.56
391.682	10.96
392.144	12.56
392.606	15.46
393.068	18.06
393.529	17.86
393.991	6.36
394.453	13.96
394.915	13.86
395.377	10.86
395.838	4.96
396.3	16.16
396.762	15.46
397.224	13.26
397.685	13.96
398.147	8.16
398.608	8.46
399.07	4.96
399.531	10.36
399.993	10.56
400.454	14.16
400.916	10.66
401.377	8.26
401.839	13.26
402.3	8.96
402.762	16.86
403.223	15.36
403.684	14.16
404.145	12.76
404.607	16.86
405.068	10.76
405.529	1.46
405.99	16.66
406.451	5.86
406.913	13.06
407.374	14.86
407.835	13.56
408.296	14.96
408.757	11.06
409.218	14.66
409.679	12.86
410.14	15.26
410.601	14.56
411.062	18.86
411.522	19.96
411.983	19.66
412.444	5.86
412.905	16.76
413.366	12.16
413.826	20.96
414.287	22.96
414.748	36.76
415.208	31.06
415.669	23.96
416.13	28.56
416.59	28.16
417.051	30.26
417.511	28.26
417.972	29.46
418.432	33.16
418.893	40.66
419.353	36.56
419.814	24.86
420.274	25.66
420.734	17.46
421.195	20.16
421.655	10.36
422.115	15.06
422.576	21.46
423.036	16.76
423.496	24.36
423.956	20.56
424.416	28.26
424.876	32.46
425.336	27.36
425.797	26.06
426.257	29.96
426.717	16.16
427.177	24.66
427.637	16.36
428.097	16.56
428.556	21.66
429.016	24.36
429.476	21.36
429.936	18.86
430.396	18.46
430.856	17.86
431.315	31.46
431.775	31.56
432.235	38.06
432.694	19.86
433.154	30.86
433.614	34.06
434.073	25.86
434.533	23.06
434.993	19.26
435.452	26.56
435.912	29.26
436.371	18.66
436.83	21.36
437.29	22.06
437.749	29.16
438.209	20.26
438.668	19.76
439.127	28.06
439.587	26.66
440.046	25.46
440.505	19.06
440.964	24.46
441.424	26.16
441.883	28.46
442.342	30.76
442.801	25.86
443.26	22.16
443.719	18.26
444.178	21.76
444.637	16.46
445.096	23.46
445.555	22.16
446.014	19.46
446.473	25.16
446.932	19.76
447.391	21.06
447.849	22.46
448.308	22.76
448.767	19.16
449.226	26.86
449.685	26.56
450.143	28.36
450.602	16.26
451.061	18.56
451.519	21.26
451.978	17.46
452.436	19.56
452.895	16.46
453.353	23.26
453.812	19.96
454.27	28.16
454.729	26.86
455.187	25.06
455.646	22.36
456.104	23.76
456.562	28.06
457.021	24.06
457.479	27.76
457.937	27.36
458.395	30.96
458.854	18.46
459.312	27.16
459.77	14.76
460.228	24.96
460.686	21.86
461.144	24.76
461.602	28.36
462.06	18.36
462.518	32.36
462.976	29.36
463.434	29.06
463.892	18.76
464.35	21.06
464.808	29.76
465.266	22.76
465.724	29.86
466.181	29.26
466.639	26.06
467.097	28.26
467.555	29.76
468.012	29.26
468.47	30.86
468.928	29.16
469.385	43.86
469.843	35.16
470.3	35.46
470.758	34.76
471.215	29.56
471.673	36.76
472.13	35.26
472.588	38.76
473.045	29.06
473.503	38.76
473.96	37.16
474.417	29.86
474.875	38.96
475.332	42.26
475.789	44.36
476.246	36.66
476.704	38.86
477.161	37.86
477.618	37.96
478.075	49.86
478.532	52.46
478.989	57.06
479.446	56.76
479.903	59.66
480.36	47.86
480.817	48.36
481.274	45.66
481.731	47.56
482.188	44.16
482.645	58.06
483.102	53.26
483.558	53.36
484.015	64.66
484.472	53.16
484.929	60.66
485.385	54.86
485.842	56.96
486.299	57.36
486.755	65.96
487.212	61.96
487.668	51.46
488.125	57.76
488.582	57.36
489.038	56.26
489.494	48.36
489.951	53.46
490.407	54.96
490.864	46.06
491.32	60.16
491.776	56.06
492.233	60.56
492.689	45.26
493.145	49.16
493.602	46.46
494.058	60.86
494.514	55.66
494.97	53.36
495.426	54.66
495.882	51.56
496.338	50.46
496.794	54.96
497.251	48.36
497.707	57.26
498.163	57.66
498.618	58.36
499.074	56.06
499.53	60.56
499.986	61.36
500.442	53.26
500.898	51.56
501.354	55.86
501.809	58.56
502.265	56.16
502.721	63.26
503.177	67.26
503.632	59.06
504.088	62.16
504.543	63.96
504.999	62.26
505.455	56.66
505.91	57.66
506.366	59.56
506.821	52.76
507.277	62.86
507.732	51.66
508.187	56.46
508.643	64.76
509.098	51.16
509.553	59.46
510.009	62.16
510.464	54.46
510.919	63.86
511.375	57.86
511.83	67.56
512.285	63.06
512.74	78.36
513.195	78.46
513.65	82.96
514.105	81.06
514.56	79.36
515.015	76.96
515.47	85.36
515.925	77.76
516.38	79.36
516.835	83.16
517.29	83.46
517.745	73.26
518.2	74.76
518.655	69.46
519.109	66.96
519.564	66.36
520.019	65.36
520.474	66.36
520.928	68.66
521.383	67.06
521.838	63.66
522.292	64.16
522.747	73.66
523.201	66.76
523.656	66.36
524.11	63.56
524.565	60.86
525.019	52.16
525.474	53.36
525.928	62.56
526.382	57.16
526.837	62.76
527.291	58.56
527.745	60.86
528.2	62.66
528.654	62.66
529.108	50.76
529.562	56.56
530.016	57.56
530.47	63.16
530.925	62.56
531.379	56.46
531.833	58.86
532.287	56.26
532.741	56.36
533.195	47.66
533.649	60.16
534.103	59.86
534.556	48.06
535.01	61.26
535.464	58.66
535.918	62.76
536.372	56.36
536.826	65.86
537.279	56.96
537.733	58.56
538.187	63.76
538.64	55.66
539.094	55.56
539.548	56.96
540.001	61.96
540.455	60.26
540.908	65.26
541.362	63.06
541.815	59.26
542.269	69.06
542.722	61.86
543.175	65.86
543.629	64.56
544.082	73.56
544.536	64.46
544.989	70.16
545.442	65.96
545.895	67.56
546.349	70.36
546.802	72.16
547.255	68.86
547.708	78.06
548.161	76.46
548.614	80.96
549.067	84.26
549.52	67.56
549.973	75.06
550.426	68.96
550.879	62.26
551.332	60.86
551.785	66.86
552.238	71.56
552.691	71.06
553.144	72.76
553.596	74.56
554.049	72.76
554.502	86.26
554.955	89.46
555.407	73.96
555.86	80.06
556.313	86.76
556.765	72.96
557.218	83.26
557.67	71.76
558.123	80.66
558.576	72.86
559.028	82.46
559.48	76.46
559.933	79.26
560.385	64.56
560.838	62.76
561.29	67.96
561.742	61.96
562.195	62.96
562.647	59.76
563.099	65.06
563.551	70.36
564.004	66.26
564.456	69.76
564.908	57.16
565.36	57.36
565.812	55.06
566.264	48.36
566.716	54.06
567.168	58.46
567.62	46.26
568.072	48.96
568.524	55.86
568.976	49.06
569.428	44.56
569.88	46.66
570.332	54.56
570.784	51.26
571.235	46.16
571.687	48.76
572.139	60.26
572.59	59.66
573.042	60.36
573.494	50.46
573.945	43.16
574.397	51.06
574.849	51.16
575.3	51.96
575.752	50.86
576.203	55.76
576.655	48.66
577.106	48.16
577.557	47.56
578.009	52.46
578.46	49.06
578.912	46.86
579.363	48.56
579.814	50.06
580.265	42.46
580.717	40.36
581.168	40.96
581.619	51.16
582.07	47.06
582.521	45.16
582.972	39.56
583.423	49.26
583.875	43.76
584.326	47.96
584.777	42.96
585.227	45.36
585.678	45.06
586.129	53.46
586.58	62.66
587.031	64.96
587.482	69.36
587.933	66.66
588.384	60.16
588.834	53.36
589.285	51.56
589.736	61.56
590.186	59.16
590.637	62.56
591.088	57.46
591.538	60.86
591.989	53.86
592.439	60.96
592.89	57.86
593.34	48.96
593.791	43.66
594.241	43.36
594.692	52.96
595.142	40.16
595.593	50.66
596.043	54.06
596.493	50.66
596.943	52.96
597.394	51.76
597.844	45.46
598.294	52.66
598.744	55.66
599.195	55.66
599.645	69.56
600.095	65.86
600.545	83.16
600.995	80.06
601.445	99.36
601.895	112.36
602.345	123.46
602.795	103.56
603.245	91.06
603.695	78.76
604.145	68.76
604.594	70.76
605.044	57.26
605.494	46.76
605.944	39.16
606.393	48.76
606.843	51.46
607.293	46.66
607.743	50.76
608.192	51.06
608.642	60.16
609.091	60.16
609.541	65.76
609.99	49.76
610.44	61.26
610.889	42.36
611.339	46.76
611.788	45.36
612.238	50.16
612.687	61.76
613.136	48.66
613.586	59.36
614.035	45.16
614.484	45.66
614.933	42.26
615.383	48.66
615.832	56.66
616.281	49.06
616.73	47.36
617.179	47.16
617.628	43.86
618.077	38.06
618.526	41.46
618.975	39.86
619.424	38.86
619.873	43.86
620.322	43.76
620.771	32.26
621.22	43.46
621.669	45.96
622.118	31.86
622.567	32.66
623.015	34.06
623.464	32.66
623.913	38.86
624.361	31.56
624.81	32.66
625.259	26.16
625.707	41.06
626.156	31.16
626.604	35.66
627.053	35.96
627.501	28.66
627.95	39.16
628.398	36.26
628.847	34.06
629.295	32.46
629.744	42.36
630.192	29.66
630.64	34.86
631.089	27.76
631.537	34.36
631.985	29.16
632.433	33.96
632.881	33.86
633.33	32.26
633.778	31.76
634.226	22.96
634.674	30.56
635.122	33.76
635.57	34.66
636.018	32.36
636.466	38.26
636.914	34.86
637.362	38.56
637.81	39.06
638.258	41.26
638.705	40.96
639.153	45.76
639.601	36.76
640.049	41.06
640.497	47.96
640.944	55.86
641.392	33.16
641.84	35.56
642.287	30.66
642.735	24.26
643.182	31.36
643.63	27.86
644.078	27.76
644.525	29.16
644.973	25.86
645.42	24.66
645.867	26.26
646.315	36.66
646.762	27.96
647.21	22.26
647.657	18.16
648.104	33.76
648.551	24.46
648.999	21.06
649.446	29.46
649.893	26.76
650.34	26.76
650.787	25.26
651.234	29.96
651.682	27.06
652.129	21.36
652.576	24.66
653.023	33.36
653.47	36.16
653.917	34.96
654.363	36.76
654.81	44.56
655.257	33.46
655.704	33.66
656.151	27.16
656.598	30.26
657.044	23.36
657.491	25.46
657.938	23.86
658.385	28.76
658.831	27.26
659.278	33.66
659.724	24.66
660.171	30.56
660.618	27.86
661.064	29.96
661.511	24.16
661.957	29.76
662.404	24.56
662.85	30.66
663.296	29.76
663.743	31.76
664.189	26.36
664.635	29.26
665.082	26.66
665.528	24.26
665.974	24.76
666.42	26.86
666.867	30.66
667.313	14.26
667.759	29.16
668.205	26.46
668.651	27.76
669.097	26.96
669.543	18.36
669.989	27.76
670.435	23.26
670.881	23.96
671.327	25.96
671.773	32.46
672.219	25.06
672.665	39.46
673.11	33.96
673.556	44.56
674.002	53.96
674.448	49.26
674.893	37.06
675.339	27.86
675.785	24.46
676.23	28.66
676.676	17.46
677.122	20.06
677.567	17.46
678.013	16.06
678.458	20.36
678.904	20.86
679.349	13.66
679.794	23.76
680.24	14.96
680.685	20.66
681.131	20.46
681.576	19.86
682.021	22.26
682.466	17.46
682.912	17.76
683.357	5.86
683.802	25.06
684.247	23.46
684.692	30.96
685.137	28.76
685.583	43.66
686.028	48.36
686.473	34.16
686.918	21.66
687.363	27.76
687.807	31.36
688.252	16.36
688.697	24.16
689.142	19.36
689.587	14.06
690.032	8.86
690.477	15.66
690.921	12.26
691.366	22.76
691.811	22.56
692.255	26.26
692.7	39.36
693.145	39.66
693.589	54.26
694.034	106.96
694.478	155.16
694.923	193.66
695.367	262.96
695.812	120.56
696.256	37.16
696.701	21.36
697.145	18.96
697.59	19.06
698.034	17.56
698.478	24.76
698.922	19.96
699.367	16.56
699.811	20.56
700.255	23.66
700.699	25.36
701.143	32.56
701.588	35.26
702.032	50.86
702.476	36.06
702.92	26.96
703.364	32.46
703.808	49.86
704.252	97.56
704.696	140.96
705.14	180.26
705.584	246.16
706.027	113.26
706.471	32.46
706.915	18.36
707.359	17.66
707.803	12.06
708.246	13.56
708.69	23.76
709.134	24.16
709.577	23.36
710.021	24.76
710.465	14.66
710.908	18.36
711.352	18.16
711.795	20.66
712.239	25.56
712.682	18.76
713.126	27.26
713.569	37.06
714.012	24.46
714.456	22.36
714.899	16.86
715.342	7.66
715.786	6.56
716.229	8.06
716.672	18.56
717.115	9.26
717.558	18.26
718.002	4.86
718.445	13.66
718.888	21.06
719.331	27.16
719.774	19.46
720.217	17.86
720.66	18.46
721.103	8.26
721.546	8.06
721.989	9.06
722.432	5.46
722.874	7.96
723.317	4.26
723.76	9.66
724.203	11.16
724.645	23.46
725.088	33.96
725.531	46.46
725.974	56.06
726.416	47.46
726.859	22.16
727.301	10.76
727.744	9.06
728.187	9.36
728.629	15.96
729.071	12.96
729.514	15.06
729.956	15.26
730.399	21.46
730.841	21.66
731.283	12.56
731.726	11.16
732.168	8.06
732.61	9.46
733.053	15.66
733.495	18.56
733.937	18.96
734.379	29.76
734.821	31.96
735.263	41.66
735.705	73.86
736.148	156.96
736.59	274.56
737.032	343.76
737.474	273.96
737.916	64.16
738.357	32.06
738.799	13.46
739.241	17.86
739.683	9.36
740.125	18.76
740.567	9.46
741.008	22.06
741.45	24.96
741.892	23.76
742.334	28.86
742.775	15.86
743.217	20.16
743.658	15.46
744.1	13.36
744.542	2.96
744.983	13.26
745.425	20.46
745.866	20.56
746.307	21.76
746.749	16.76
747.19	24.96
747.632	35.26
748.073	74.86
748.514	200.86
748.956	315.46
749.397	381.26
749.838	328.86
750.279	341.26
750.72	143.96
751.162	44.56
751.603	24.86
752.044	12.86
752.485	2.56
752.926	7.06
753.367	17.66
753.808	11.46
754.249	13.16
754.69	8.36
755.131	9.06
755.572	4.86
756.013	5.46
756.453	4.46
756.894	7.46
757.335	6.06
757.776	6.46
758.216	11.16
758.657	10.16
759.098	3.66
759.538	5.56
759.979	8.86
760.42	16.06
760.86	53.36
761.301	176.16
761.741	454.66
762.182	726.46
762.622	490.56
763.063	122.96
763.503	38.66
763.943	18.26
764.384	13.76
764.824	20.16
765.264	12.16
765.705	14.06
766.145	9.16
766.585	8.26
767.025	2.86
767.465	2.46
767.906	11.06
768.346	14.56
768.786	7.56
769.226	10.76
769.666	21.76
770.106	48.66
770.546	158.86
770.986	306.16
771.426	269.66
771.866	78.36
772.306	18.76
772.745	7.76
773.185	6.06
773.625	10.56
774.065	2.86
774.505	5.46
774.944	6.56
775.384	20.26
775.824	31.76
776.263	22.66
776.703	6.86
777.142	0.76
777.582	2.06
778.021	7.96
778.461	-2.64
778.9	9.16
779.34	14.96
779.779	3.96
780.219	-0.54
780.658	0.66
781.097	0.06
781.537	1.76
781.976	2.36
782.415	0.46
782.855	-0.04
783.294	-3.14
783.733	2.06
784.172	6.26
784.611	-2.94
785.05	1.96
785.489	4.16
785.928	6.36
786.367	11.46
786.806	10.76
787.245	3.86
787.684	0.96
788.123	10.16
788.562	9.86
789.001	4.56
789.44	3.96
789.879	4.06
790.317	0.36
790.756	11.76
791.195	-0.64
791.634	6.26
792.072	20.06
792.511	28.56
792.95	95.66
