Data from 20171114-ORNL-Ar_H_NY_Subt18_08-04-06-703.txt Node
Date: Tue Nov 14 08:04:06 EST 2017
User: Ender
Spectrometer: HR+D1039
Trigger mode: 0
Integration Time (sec): 2.730000E-2
Scans to average: 10
Electric dark correction enabled: true
Nonlinearity correction enabled: false
Boxcar width: 0
XAxis mode: Wavelengths
Number of Pixels in Spectrum: 2048
>>>>>Begin Spectral Data<<<<<
187.836	2.84
188.309	2.84
188.782	2.84
189.255	2.74
189.728	-1.86
190.201	1.14
190.674	4.44
191.147	-1.76
191.619	-7.56
192.092	1.14
192.565	4.14
193.038	-1.36
193.511	0.24
193.984	0.94
194.456	-2.16
194.929	-1.16
195.402	-3.36
195.874	1.64
196.347	-9.76
196.82	-5.06
197.292	1.64
197.765	-4.96
198.237	-5.36
198.71	-0.96
199.182	2.14
199.655	-0.26
200.127	0.24
200.6	-2.36
201.072	1.04
201.544	-0.56
202.017	-4.06
202.489	-2.56
202.961	-6.56
203.433	-4.66
203.906	-9.16
204.378	-3.96
204.85	-3.66
205.322	-1.56
205.794	3.54
206.266	-3.76
206.739	-1.06
207.211	1.74
207.683	-4.76
208.155	-6.06
208.627	-3.16
209.099	-0.36
209.57	-9.06
210.042	-6.36
210.514	-3.96
210.986	5.84
211.458	-7.76
211.93	-9.56
212.402	5.24
212.873	-8.06
213.345	-8.06
213.817	-14.76
214.288	-7.76
214.76	-10.76
215.232	-0.66
215.703	-3.56
216.175	-3.46
216.646	-6.26
217.118	-6.96
217.589	0.54
218.061	-2.26
218.532	-1.96
219.004	0.24
219.475	-2.16
219.946	-3.26
220.418	-4.66
220.889	-0.36
221.36	1.44
221.832	-0.36
222.303	-3.96
222.774	-0.06
223.245	-8.86
223.717	-2.46
224.188	-1.46
224.659	-5.96
225.13	-12.16
225.601	-2.16
226.072	0.74
226.543	0.24
227.014	-3.76
227.485	-3.06
227.956	-10.86
228.427	-2.76
228.898	-1.96
229.369	-1.96
229.839	-11.16
230.31	-14.26
230.781	7.34
231.252	-0.76
231.722	-4.56
232.193	-1.16
232.664	1.84
233.135	2.44
233.605	-1.66
234.076	-4.36
234.546	0.44
235.017	6.34
235.487	0.24
235.958	1.94
236.428	-2.66
236.899	4.84
237.369	6.84
237.84	-4.36
238.31	4.94
238.78	3.84
239.251	1.54
239.721	-0.86
240.191	2.54
240.662	-6.86
241.132	-2.06
241.602	-2.36
242.072	-3.06
242.542	6.24
243.013	-1.66
243.483	7.14
243.953	1.94
244.423	-0.76
244.893	-6.26
245.363	5.14
245.833	0.54
246.303	-3.36
246.773	6.24
247.243	0.24
247.712	1.84
248.182	7.54
248.652	2.94
249.122	-6.26
249.592	7.04
250.061	17.24
250.531	27.24
251.001	11.64
251.471	7.64
251.94	16.54
252.41	5.64
252.879	-0.96
253.349	4.34
253.818	9.34
254.288	6.04
254.757	6.84
255.227	2.24
255.696	1.34
256.166	7.94
256.635	12.84
257.105	6.54
257.574	3.44
258.043	7.44
258.513	2.54
258.982	8.74
259.451	0.64
259.92	8.74
260.389	6.84
260.859	7.24
261.328	9.04
261.797	13.84
262.266	12.34
262.735	6.14
263.204	4.84
263.673	1.74
264.142	6.14
264.611	-6.16
265.08	-2.76
265.549	-1.76
266.018	6.44
266.487	-3.06
266.955	-9.96
267.424	6.74
267.893	5.24
268.362	1.74
268.83	0.24
269.299	7.44
269.768	12.64
270.236	4.84
270.705	0.74
271.174	-4.86
271.642	7.04
272.111	7.04
272.579	12.34
273.048	19.24
273.516	22.04
273.985	15.44
274.453	12.14
274.922	15.24
275.39	5.74
275.858	-1.46
276.327	9.74
276.795	16.14
277.263	3.74
277.731	26.04
278.2	42.34
278.668	40.84
279.136	35.14
279.604	13.14
280.072	14.74
280.54	5.04
281.008	2.14
281.477	5.24
281.945	3.34
282.413	10.74
282.881	8.64
283.348	4.44
283.816	9.24
284.284	12.74
284.752	18.84
285.22	6.24
285.688	9.14
286.156	9.84
286.623	37.14
287.091	38.14
287.559	21.94
288.026	9.54
288.494	8.44
288.962	5.34
289.429	1.04
289.897	12.44
290.364	9.14
290.832	16.24
291.3	13.94
291.767	16.54
292.234	14.64
292.702	13.54
293.169	11.24
293.637	14.14
294.104	10.04
294.571	0.14
295.039	8.44
295.506	8.04
295.973	12.14
296.44	10.34
296.908	18.04
297.375	11.44
297.842	17.54
298.309	11.94
298.776	11.94
299.243	11.94
299.71	8.44
300.177	14.24
300.644	9.54
301.111	13.44
301.578	9.84
302.045	12.04
302.512	14.24
302.979	16.64
303.446	13.24
303.913	10.64
304.379	13.54
304.846	13.64
305.313	19.64
305.78	15.84
306.246	26.14
306.713	20.94
307.18	19.44
307.646	15.04
308.113	19.54
308.579	17.64
309.046	17.44
309.512	16.34
309.979	10.24
310.445	25.34
310.912	17.04
311.378	26.54
311.845	19.44
312.311	23.84
312.777	23.64
313.244	25.64
313.71	31.34
314.176	21.14
314.642	22.94
315.109	19.54
315.575	24.14
316.041	33.14
316.507	20.14
316.973	26.84
317.439	23.94
317.905	23.64
318.371	27.34
318.837	26.24
319.303	25.04
319.769	25.54
320.235	21.24
320.701	26.64
321.167	22.34
321.633	22.64
322.099	27.54
322.564	36.54
323.03	34.64
323.496	29.04
323.962	30.04
324.427	24.94
324.893	32.74
325.359	28.44
325.824	22.44
326.29	34.64
326.755	32.44
327.221	33.84
327.686	30.84
328.152	38.54
328.617	33.54
329.083	33.84
329.548	34.44
330.014	34.84
330.479	31.84
330.944	30.04
331.41	35.94
331.875	33.24
332.34	32.84
332.805	27.54
333.271	39.04
333.736	31.24
334.201	41.54
334.666	41.44
335.131	43.04
335.596	42.94
336.061	34.64
336.526	32.34
336.991	34.54
337.456	43.24
337.921	41.54
338.386	35.44
338.851	33.74
339.316	36.34
339.781	41.04
340.246	38.94
340.711	38.04
341.175	40.54
341.64	26.84
342.105	39.94
342.569	46.24
343.034	48.64
343.499	46.54
343.963	49.04
344.428	47.04
344.893	48.94
345.357	44.24
345.822	48.94
346.286	51.84
346.751	55.94
347.215	48.54
347.679	50.74
348.144	68.94
348.608	67.74
349.073	50.04
349.537	50.94
350.001	53.44
350.465	68.24
350.93	65.04
351.394	65.04
351.858	55.74
352.322	64.94
352.786	61.14
353.25	75.64
353.715	83.34
354.179	71.34
354.643	87.04
355.107	91.04
355.571	84.74
356.035	82.34
356.498	84.14
356.962	91.54
357.426	100.14
357.89	84.84
358.354	73.84
358.818	63.24
359.281	60.54
359.745	58.24
360.209	63.24
360.673	62.64
361.136	62.34
361.6	71.94
362.064	69.44
362.527	68.34
362.991	74.94
363.454	68.24
363.918	61.94
364.381	74.34
364.845	72.54
365.308	68.74
365.772	67.74
366.235	71.94
366.698	73.04
367.162	68.14
367.625	71.04
368.088	73.24
368.552	68.54
369.015	65.64
369.478	76.64
369.941	85.34
370.404	75.04
370.867	86.34
371.331	84.64
371.794	95.74
372.257	90.94
372.72	94.14
373.183	91.04
373.646	88.04
374.109	79.94
374.572	88.94
375.035	88.64
375.497	83.94
375.96	83.34
376.423	77.34
376.886	98.24
377.349	89.14
377.811	81.44
378.274	85.34
378.737	87.14
379.199	98.84
379.662	95.54
380.125	100.04
380.587	94.94
381.05	100.94
381.512	103.04
381.975	116.64
382.437	107.64
382.9	104.74
383.362	111.14
383.825	111.14
384.287	117.24
384.75	112.84
385.212	114.34
385.674	109.14
386.136	121.44
386.599	109.94
387.061	109.44
387.523	108.04
387.985	115.54
388.447	122.64
388.91	119.04
389.372	133.04
389.834	122.04
390.296	113.94
390.758	128.54
391.22	135.44
391.682	174.04
392.144	235.14
392.606	196.44
393.068	141.34
393.529	143.94
393.991	127.04
394.453	123.14
394.915	132.74
395.377	161.44
395.838	176.34
396.3	131.24
396.762	121.04
397.224	103.64
397.685	109.94
398.147	108.34
398.608	110.84
399.07	110.54
399.531	111.94
399.993	120.64
400.454	127.04
400.916	125.24
401.377	120.34
401.839	124.14
402.3	121.74
402.762	145.04
403.223	153.84
403.684	148.84
404.145	135.44
404.607	136.54
405.068	137.14
405.529	129.94
405.99	151.64
406.451	139.34
406.913	152.24
407.374	137.64
407.835	138.04
408.296	145.84
408.757	142.74
409.218	159.54
409.679	148.94
410.14	153.94
410.601	151.34
411.062	158.84
411.522	161.44
411.983	160.14
412.444	156.44
412.905	147.44
413.366	151.04
413.826	169.04
414.287	192.74
414.748	231.54
415.208	216.94
415.669	184.54
416.13	172.74
416.59	171.04
417.051	190.34
417.511	196.24
417.972	203.34
418.432	211.84
418.893	252.54
419.353	218.04
419.814	172.34
420.274	154.44
420.734	153.84
421.195	169.74
421.655	166.14
422.115	165.74
422.576	161.84
423.036	173.64
423.496	179.54
423.956	183.04
424.416	201.54
424.876	228.34
425.336	219.04
425.797	220.64
426.257	216.04
426.717	205.74
427.177	198.44
427.637	188.04
428.097	201.74
428.556	207.84
429.016	230.84
429.476	228.64
429.936	231.04
430.396	242.24
430.856	247.54
431.315	266.34
431.775	290.44
432.235	314.64
432.694	297.24
433.154	295.64
433.614	316.54
434.073	288.14
434.533	240.04
434.993	230.14
435.452	234.14
435.912	245.94
436.371	236.94
436.83	244.74
437.29	226.34
437.749	205.84
438.209	205.54
438.668	219.64
439.127	235.04
439.587	217.94
440.046	211.54
440.505	211.04
440.964	226.84
441.424	255.44
441.883	258.44
442.342	221.84
442.801	194.24
443.26	191.64
443.719	194.04
444.178	187.44
444.637	178.84
445.096	183.74
445.555	187.14
446.014	189.14
446.473	190.94
446.932	203.34
447.391	185.94
447.849	198.64
448.308	185.84
448.767	187.14
449.226	203.54
449.685	205.84
450.143	218.64
450.602	202.14
451.061	189.84
451.519	200.94
451.978	200.04
452.436	197.24
452.895	206.14
453.353	213.54
453.812	203.64
454.27	198.94
454.729	199.24
455.187	201.64
455.646	207.34
456.104	203.44
456.562	221.64
457.021	225.94
457.479	225.84
457.937	228.14
458.395	224.54
458.854	208.84
459.312	220.34
459.77	223.44
460.228	210.94
460.686	206.64
461.144	214.94
461.602	209.84
462.06	210.04
462.518	215.04
462.976	216.74
463.434	222.04
463.892	222.94
464.35	234.14
464.808	244.04
465.266	227.54
465.724	234.44
466.181	238.84
466.639	237.14
467.097	241.74
467.555	246.84
468.012	259.64
468.47	260.64
468.928	276.94
469.385	283.54
469.843	288.24
470.3	289.74
470.758	298.24
471.215	322.84
471.673	341.94
472.13	336.24
472.588	339.94
473.045	325.34
473.503	321.84
473.96	334.34
474.417	331.34
474.875	371.14
475.332	402.84
475.789	395.04
476.246	397.34
476.704	413.34
477.161	436.24
477.618	440.64
478.075	476.44
478.532	514.84
478.989	572.74
479.446	662.34
479.903	653.94
480.36	694.94
480.817	739.14
481.274	822.64
481.731	906.14
482.188	982.14
482.645	1105.84
483.102	1212.54
483.558	1304.04
484.015	1372.54
484.472	1357.14
484.929	1315.64
485.385	1274.74
485.842	1236.94
486.299	1175.64
486.755	1093.74
487.212	925.34
487.668	788.74
488.125	731.64
488.582	669.84
489.038	639.44
489.494	612.34
489.951	588.44
490.407	567.14
490.864	557.84
491.32	555.94
491.776	544.84
492.233	544.54
492.689	521.14
493.145	516.54
493.602	513.54
494.058	526.44
494.514	529.64
494.97	540.44
495.426	552.04
495.882	531.14
496.338	518.24
496.794	535.94
497.251	534.24
497.707	534.34
498.163	538.64
498.618	543.04
499.074	551.84
499.53	565.54
499.986	569.34
500.442	549.54
500.898	536.14
501.354	530.54
501.809	531.84
502.265	553.34
502.721	556.64
503.177	562.44
503.632	568.74
504.088	577.04
504.543	606.14
504.999	594.14
505.455	560.84
505.91	533.14
506.366	546.44
506.821	539.84
507.277	537.44
507.732	539.34
508.187	530.24
508.643	546.74
509.098	541.04
509.553	554.54
510.009	548.64
510.464	564.84
510.919	579.64
511.375	581.74
511.83	600.04
512.285	605.54
512.74	646.44
513.195	654.74
513.65	660.74
514.105	653.24
514.56	664.84
515.015	675.24
515.47	685.84
515.925	666.24
516.38	669.14
516.835	682.74
517.29	677.94
517.745	656.84
518.2	645.24
518.655	634.44
519.109	626.34
519.564	632.04
520.019	617.54
520.474	606.04
520.928	625.64
521.383	613.54
521.838	600.54
522.292	601.54
522.747	598.34
523.201	605.04
523.656	588.34
524.11	588.54
524.565	580.54
525.019	582.04
525.474	588.24
525.928	593.54
526.382	580.64
526.837	588.44
527.291	578.74
527.745	582.94
528.2	586.14
528.654	582.14
529.108	584.44
529.562	572.94
530.016	581.24
530.47	585.04
530.925	575.44
531.379	584.54
531.833	590.54
532.287	580.54
532.741	582.24
533.195	597.54
533.649	596.24
534.103	602.34
534.556	592.44
535.01	581.84
535.464	577.44
535.918	591.14
536.372	602.54
536.826	606.14
537.279	587.94
537.733	598.84
538.187	595.14
538.64	580.04
539.094	607.64
539.548	607.64
540.001	600.64
540.455	605.84
540.908	607.44
541.362	610.64
541.815	616.74
542.269	633.34
542.722	626.04
543.175	651.74
543.629	641.54
544.082	642.44
544.536	647.34
544.989	650.44
545.442	662.94
545.895	655.04
546.349	652.04
546.802	656.94
547.255	658.54
547.708	667.64
548.161	674.84
548.614	674.04
549.067	681.94
549.52	678.54
549.973	673.44
550.426	665.24
550.879	659.24
551.332	654.24
551.785	654.44
552.238	659.84
552.691	670.84
553.144	682.04
553.596	697.04
554.049	711.24
554.502	732.34
554.955	751.14
555.407	752.64
555.86	728.24
556.313	734.04
556.765	727.74
557.218	719.94
557.67	719.64
558.123	711.44
558.576	710.04
559.028	717.64
559.48	713.84
559.933	710.34
560.385	699.34
560.838	671.24
561.29	644.14
561.742	629.34
562.195	612.84
562.647	622.34
563.099	631.04
563.551	631.24
564.004	639.04
564.456	624.04
564.908	617.24
565.36	610.64
565.812	593.34
566.264	580.64
566.716	594.24
567.168	580.74
567.62	588.84
568.072	566.14
568.524	564.64
568.976	557.54
569.428	538.64
569.88	543.34
570.332	549.24
570.784	545.84
571.235	557.64
571.687	564.84
572.139	559.64
572.59	570.84
573.042	560.34
573.494	563.74
573.945	567.24
574.397	545.84
574.849	554.74
575.3	552.44
575.752	533.14
576.203	546.74
576.655	546.14
577.106	528.14
577.557	529.64
578.009	530.24
578.46	530.84
578.912	527.24
579.363	534.74
579.814	530.34
580.265	528.34
580.717	532.94
581.168	531.54
581.619	545.84
582.07	538.14
582.521	529.94
582.972	533.04
583.423	536.64
583.875	534.14
584.326	545.94
584.777	589.04
585.227	644.44
585.678	713.94
586.129	787.44
586.58	850.94
587.031	926.14
587.482	1055.04
587.933	1202.64
588.384	1036.24
588.834	772.14
589.285	638.94
589.736	619.34
590.186	616.44
590.637	606.74
591.088	586.24
591.538	582.44
591.989	570.54
592.439	572.14
592.89	570.14
593.34	561.84
593.791	553.44
594.241	544.84
594.692	558.84
595.142	540.64
595.593	556.74
596.043	552.84
596.493	548.74
596.943	561.54
597.394	572.34
597.844	565.24
598.294	567.44
598.744	589.84
599.195	612.44
599.645	632.14
600.095	672.14
600.545	719.34
600.995	751.94
601.445	797.94
601.895	856.74
602.345	882.04
602.795	880.24
603.245	839.34
603.695	818.44
604.145	747.64
604.594	716.84
605.044	671.04
605.494	621.54
605.944	576.54
606.393	573.44
606.843	566.74
607.293	562.64
607.743	565.24
608.192	576.64
608.642	590.04
609.091	581.74
609.541	590.64
609.99	597.34
610.44	592.54
610.889	555.94
611.339	544.94
611.788	533.24
612.238	540.94
612.687	556.24
613.136	554.44
613.586	570.74
614.035	573.54
614.484	583.04
614.933	569.24
615.383	579.74
615.832	572.64
616.281	552.14
616.73	527.04
617.179	506.84
617.628	507.24
618.077	489.84
618.526	478.74
618.975	475.74
619.424	466.84
619.873	469.34
620.322	478.74
620.771	462.64
621.22	461.74
621.669	454.64
622.118	455.54
622.567	442.04
623.015	438.74
623.464	440.44
623.913	432.54
624.361	419.64
624.81	424.44
625.259	417.94
625.707	423.74
626.156	423.54
626.604	434.14
627.053	432.44
627.501	432.94
627.95	428.14
628.398	436.94
628.847	434.94
629.295	431.74
629.744	445.54
630.192	435.54
630.64	438.04
631.089	428.44
631.537	437.44
631.985	431.84
632.433	443.94
632.881	454.74
633.33	487.54
633.778	473.94
634.226	422.84
634.674	429.34
635.122	435.94
635.57	445.14
636.018	472.44
636.466	437.34
636.914	424.34
637.362	424.94
637.81	437.64
638.258	442.34
638.705	429.84
639.153	458.14
639.601	457.04
640.049	480.94
640.497	503.54
640.944	530.34
641.392	481.74
641.84	459.14
642.287	448.64
642.735	421.94
643.182	435.44
643.63	436.34
644.078	428.04
644.525	448.44
644.973	444.04
645.42	455.84
645.867	466.44
646.315	479.84
646.762	492.64
647.21	516.64
647.657	536.74
648.104	565.14
648.551	577.94
648.999	622.04
649.446	686.94
649.893	749.04
650.34	853.24
650.787	1028.74
651.234	1263.54
651.682	1649.54
652.129	2221.24
652.576	3207.14
653.023	4747.44
653.47	6635.64
653.917	8385.04
654.363	9853.94
654.81	11159.24
655.257	10604.34
655.704	6883.04
656.151	4008.54
656.598	2583.74
657.044	1838.44
657.491	1416.14
657.938	1119.54
658.385	943.14
658.831	810.94
659.278	727.34
659.724	638.04
660.171	586.54
660.618	538.24
661.064	513.44
661.511	487.74
661.957	469.84
662.404	464.34
662.85	470.94
663.296	462.94
663.743	413.24
664.189	395.64
664.635	395.64
665.082	400.34
665.528	388.54
665.974	385.04
666.42	371.24
666.867	373.94
667.313	357.74
667.759	358.24
668.205	357.74
668.651	361.44
669.097	361.24
669.543	367.64
669.989	351.14
670.435	328.04
670.881	331.24
671.327	337.34
671.773	346.44
672.219	360.94
672.665	405.74
673.11	430.84
673.556	463.34
674.002	496.34
674.448	484.34
674.893	411.64
675.339	350.94
675.785	325.24
676.23	304.64
676.676	281.24
677.122	285.84
677.567	271.64
678.013	271.44
678.458	257.24
678.904	258.34
679.349	253.44
679.794	257.34
680.24	252.34
680.685	256.34
681.131	261.14
681.576	259.44
682.021	259.14
682.466	258.44
682.912	256.84
683.357	258.84
683.802	276.84
684.247	292.14
684.692	332.04
685.137	357.04
685.583	399.24
686.028	415.04
686.473	386.24
686.918	332.94
687.363	307.44
687.807	291.54
688.252	265.44
688.697	263.54
689.142	250.14
689.587	246.04
690.032	238.24
690.477	256.94
690.921	263.04
691.366	276.64
691.811	298.44
692.255	322.54
692.7	342.34
693.145	364.24
693.589	489.54
694.034	789.34
694.478	1117.24
694.923	1305.24
695.367	1729.84
695.812	898.04
696.256	369.44
696.701	278.94
697.145	254.64
697.59	247.04
698.034	230.84
698.478	241.84
698.922	237.74
699.367	230.74
699.811	251.44
700.255	266.04
700.699	279.34
701.143	314.74
701.588	343.64
702.032	384.14
702.476	378.54
702.92	367.94
703.364	361.14
703.808	450.64
704.252	741.44
704.696	1051.64
705.14	1262.24
705.584	1628.24
706.027	798.14
706.471	375.74
706.915	290.74
707.359	258.84
707.803	230.84
708.246	226.44
708.69	228.24
709.134	224.74
709.577	223.24
710.021	233.54
710.465	228.04
710.908	220.84
711.352	221.34
711.795	226.54
712.239	256.44
712.682	277.94
713.126	302.64
713.569	344.44
714.012	279.94
714.456	238.04
714.899	218.74
715.342	202.34
715.786	188.44
716.229	188.04
716.672	192.54
717.115	183.74
717.558	185.04
718.002	183.74
718.445	192.74
718.888	212.94
719.331	211.24
719.774	222.44
720.217	224.04
720.66	205.84
721.103	193.24
721.546	187.44
721.989	188.64
722.432	165.74
722.874	176.24
723.317	170.44
723.76	182.04
724.203	178.44
724.645	228.84
725.088	308.44
725.531	413.34
725.974	479.14
726.416	408.84
726.859	225.24
727.301	171.94
727.744	173.04
728.187	168.14
728.629	177.04
729.071	173.24
729.514	185.44
729.956	196.44
730.399	206.74
730.841	209.34
731.283	196.14
731.726	194.14
732.168	197.74
732.61	193.74
733.053	204.94
733.495	227.14
733.937	249.44
734.379	287.84
734.821	305.94
735.263	393.04
735.705	590.94
736.148	1105.34
736.59	1884.84
737.032	2338.14
737.474	1911.24
737.916	602.34
738.357	310.54
738.799	238.94
739.241	216.64
739.683	207.34
740.125	211.74
740.567	214.44
741.008	233.74
741.45	234.34
741.892	235.24
742.334	251.94
742.775	262.94
743.217	256.24
743.658	195.24
744.1	189.84
744.542	190.74
744.983	226.74
745.425	259.24
745.866	258.94
746.307	204.44
746.749	214.64
747.19	233.24
747.632	317.64
748.073	610.54
748.514	1312.84
748.956	2108.14
749.397	2635.54
749.838	2200.74
750.279	2283.84
750.72	1133.54
751.162	401.34
751.603	238.24
752.044	185.44
752.485	157.04
752.926	156.14
753.367	144.04
753.808	140.14
754.249	140.14
754.69	133.14
755.131	129.34
755.572	134.34
756.013	126.64
756.453	136.64
756.894	131.94
757.335	140.84
757.776	137.94
758.216	141.14
758.657	141.94
759.098	144.74
759.538	160.64
759.979	189.04
760.42	261.84
760.86	496.04
761.301	1275.24
761.741	3205.74
762.182	5000.64
762.622	3545.94
763.063	993.64
763.503	398.24
763.943	259.34
764.384	245.04
