Data from 20171114-ORNL-Ar_H_NY_Subt18_08-04-03-427.txt Node
Date: Tue Nov 14 08:04:03 EST 2017
User: Ender
Spectrometer: HR+D1039
Trigger mode: 0
Integration Time (sec): 2.730000E-2
Scans to average: 10
Electric dark correction enabled: true
Nonlinearity correction enabled: false
Boxcar width: 0
XAxis mode: Wavelengths
Number of Pixels in Spectrum: 2048
>>>>>Begin Spectral Data<<<<<
187.836	-7.9
188.309	-7.9
188.782	-7.9
189.255	-0.5
189.728	1.1
190.201	3.6
190.674	1
191.147	2.8
191.619	-3.7
192.092	1.7
192.565	3.2
193.038	-0.4
193.511	-2
193.984	-2.4
194.456	0.1
194.929	2.3
195.402	1.1
195.874	-0
196.347	-2.3
196.82	-6.1
197.292	6.2
197.765	-0.2
198.237	-3.4
198.71	3.4
199.182	-3.8
199.655	-2.8
200.127	1.9
200.6	-3.6
201.072	-5.8
201.544	-6
202.017	-9.3
202.489	5.3
202.961	-9.7
203.433	-4.4
203.906	-4.9
204.378	-4.2
204.85	-6.4
205.322	-6
205.794	-5.2
206.266	-5.2
206.739	-7
207.211	0.5
207.683	-6.5
208.155	-0.4
208.627	-7.4
209.099	-2.5
209.57	-6.6
210.042	-5.3
210.514	-6
210.986	-4
211.458	-3.9
211.93	-3.5
212.402	4.8
212.873	-8.3
213.345	-7.6
213.817	-8.7
214.288	-2.5
214.76	-7.5
215.232	-5.1
215.703	-2
216.175	-6.6
216.646	0.2
217.118	-8.5
217.589	-3.9
218.061	-2.5
218.532	-4.1
219.004	-3.1
219.475	-5.4
219.946	-9.8
220.418	-3
220.889	2.8
221.36	-1.2
221.832	-5
222.303	-7.3
222.774	4.8
223.245	-7.2
223.717	-5.8
224.188	-4.9
224.659	-10.6
225.13	-10.5
225.601	-10.5
226.072	0.2
226.543	-5.2
227.014	-2.9
227.485	-6.3
227.956	-3.6
228.427	-0.9
228.898	-0.2
229.369	3.4
229.839	-6.6
230.31	-5.9
230.781	-2.3
231.252	-4.6
231.722	-2.5
232.193	-2.5
232.664	-2.2
233.135	-3
233.605	0.5
234.076	-8.9
234.546	-6.9
235.017	5.1
235.487	-1.3
235.958	-0.2
236.428	-4.5
236.899	-5.1
237.369	-2.8
237.84	-2.2
238.31	0.8
238.78	-2.8
239.251	-4.9
239.721	-2.3
240.191	-1.1
240.662	-2.9
241.132	1.6
241.602	-3
242.072	1.3
242.542	2.4
243.013	1.6
243.483	3.7
243.953	1.4
244.423	1
244.893	-2.4
245.363	2.5
245.833	-1.7
246.303	-9.7
246.773	-0.5
247.243	-0.5
247.712	0.5
248.182	2.8
248.652	-0.5
249.122	-3
249.592	7.1
250.061	10.6
250.531	18.2
251.001	9.4
251.471	13.9
251.94	9.1
252.41	-0.9
252.879	-7.4
253.349	5.4
253.818	5.9
254.288	6.8
254.757	7.5
255.227	-4.6
255.696	0.7
256.166	7
256.635	2.4
257.105	2.5
257.574	1.3
258.043	2.1
258.513	4.7
258.982	12.4
259.451	2.3
259.92	8.6
260.389	6.2
260.859	8.9
261.328	6.3
261.797	11.6
262.266	7
262.735	6.1
263.204	0.4
263.673	-4.3
264.142	6.7
264.611	-5.3
265.08	-2.7
265.549	-3.7
266.018	6.2
266.487	-2.3
266.955	-9.7
267.424	-1.3
267.893	-0
268.362	-1.2
268.83	1.2
269.299	6.1
269.768	4.6
270.236	1.6
270.705	-3
271.174	4.6
271.642	8.6
272.111	3
272.579	10.8
273.048	10.4
273.516	16.8
273.985	16
274.453	12.8
274.922	16.5
275.39	3.7
275.858	-5
276.327	3.7
276.795	15.3
277.263	0.2
277.731	23.3
278.2	40.5
278.668	37.8
279.136	33.3
279.604	4.6
280.072	12.1
280.54	5.9
281.008	5.4
281.477	9.1
281.945	10
282.413	13.4
282.881	9.5
283.348	-2.3
283.816	10.4
284.284	8.7
284.752	6.9
285.22	9
285.688	10.4
286.156	12.2
286.623	30.4
287.091	33
287.559	19.8
288.026	14.1
288.494	8.5
288.962	2
289.429	8.6
289.897	14.6
290.364	0.3
290.832	11.3
291.3	4.9
291.767	6.6
292.234	10.2
292.702	5.7
293.169	5.7
293.637	19
294.104	10.3
294.571	8.7
295.039	8.6
295.506	10.6
295.973	14.1
296.44	7.9
296.908	13
297.375	3
297.842	11.1
298.309	12.9
298.776	9.1
299.243	11.6
299.71	6.9
300.177	11.2
300.644	12
301.111	8.3
301.578	16.6
302.045	6.4
302.512	11.9
302.979	17.5
303.446	11
303.913	12.2
304.379	4.2
304.846	14.9
305.313	12.7
305.78	12.1
306.246	18.1
306.713	18.6
307.18	12.7
307.646	18.2
308.113	13.4
308.579	15.6
309.046	13.6
309.512	17.3
309.979	10.8
310.445	21.7
310.912	20.7
311.378	25.4
311.845	12
312.311	22.9
312.777	19.5
313.244	21.7
313.71	30.8
314.176	19.6
314.642	26.6
315.109	20.3
315.575	27.4
316.041	25.4
316.507	21.5
316.973	25.1
317.439	21.8
317.905	24.9
318.371	20.9
318.837	22.9
319.303	26.8
319.769	28.3
320.235	27.8
320.701	26
321.167	27.9
321.633	21.9
322.099	28.3
322.564	30.2
323.03	33.5
323.496	26.6
323.962	37.2
324.427	22.5
324.893	32.6
325.359	27.9
325.824	27.8
326.29	29.4
326.755	30.8
327.221	31
327.686	26.4
328.152	34.7
328.617	36.4
329.083	28.5
329.548	35.4
330.014	40.9
330.479	30.4
330.944	34.3
331.41	29.1
331.875	38.3
332.34	32.3
332.805	30.3
333.271	35.4
333.736	36.1
334.201	42.1
334.666	34.8
335.131	40.4
335.596	38.5
336.061	34.3
336.526	32.7
336.991	38.7
337.456	45.8
337.921	38.8
338.386	38.3
338.851	38.4
339.316	36.2
339.781	33.8
340.246	38
340.711	34.5
341.175	38.9
341.64	40.1
342.105	40.4
342.569	42.3
343.034	49.6
343.499	38.6
343.963	45.6
344.428	52.3
344.893	51.6
345.357	51.8
345.822	49.6
346.286	51.6
346.751	49.8
347.215	50.3
347.679	54.7
348.144	74
348.608	63.8
349.073	54.4
349.537	52.8
350.001	55.1
350.465	69.7
350.93	59
351.394	60.3
351.858	57
352.322	68.3
352.786	62.9
353.25	69.6
353.715	79.8
354.179	69
354.643	86.8
355.107	89.5
355.571	78.9
356.035	79.4
356.498	85
356.962	96.3
357.426	101.9
357.89	88.9
358.354	72.2
358.818	65.3
359.281	66.2
359.745	59.7
360.209	69.1
360.673	61
361.136	63.7
361.6	74.2
362.064	66.5
362.527	64.1
362.991	75.1
363.454	68.8
363.918	61.6
364.381	66.4
364.845	69.9
365.308	71.8
365.772	65.5
366.235	69.5
366.698	63
367.162	73.5
367.625	65.7
368.088	66.7
368.552	67.7
369.015	68.6
369.478	78.6
369.941	87.1
370.404	77.6
370.867	88.2
371.331	90.5
371.794	92.3
372.257	88.5
372.72	98.9
373.183	95.7
373.646	87.2
374.109	84.7
374.572	85.4
375.035	83.6
375.497	87.7
375.96	87
376.423	85.6
376.886	93.7
377.349	87.5
377.811	82.7
378.274	89.5
378.737	89
379.199	92.5
379.662	86.9
380.125	96.4
380.587	98.5
381.05	103.6
381.512	115.2
381.975	115.7
382.437	108.3
382.9	116.5
383.362	112.1
383.825	112.5
384.287	120.8
384.75	115.4
385.212	114.5
385.674	112.7
386.136	116.8
386.599	107.5
387.061	110.9
387.523	111.1
387.985	113.4
388.447	122.5
388.91	117.8
389.372	134.7
389.834	126.8
390.296	111.9
390.758	125.4
391.22	136
391.682	169.2
392.144	237.5
392.606	186.6
393.068	144
393.529	139.2
393.991	131
394.453	121.5
394.915	127.4
395.377	164.6
395.838	176.6
396.3	135
396.762	123.9
397.224	117.4
397.685	117.5
398.147	118.5
398.608	110.8
399.07	114.4
399.531	113.1
399.993	114
400.454	129.7
400.916	128.8
401.377	128.3
401.839	130.3
402.3	130.1
402.762	147.4
403.223	156.3
403.684	151.2
404.145	146.3
404.607	137.8
405.068	142.5
405.529	153
405.99	158.8
406.451	149.8
406.913	142.9
407.374	143.5
407.835	140.2
408.296	148.2
408.757	150.1
409.218	163.1
409.679	147.9
410.14	159.7
410.601	154.1
411.062	162.2
411.522	164.2
411.983	156.8
412.444	143.7
412.905	155.7
413.366	159.8
413.826	163.6
414.287	193.4
414.748	228.1
415.208	222.2
415.669	191.9
416.13	181.6
416.59	180.9
417.051	193.7
417.511	194.6
417.972	208.1
418.432	212
418.893	258.8
419.353	226
419.814	170.7
420.274	157.3
420.734	149.7
421.195	169.7
421.655	168.4
422.115	168.7
422.576	170.3
423.036	169.7
423.496	175.8
423.956	193
424.416	206.3
424.876	231.6
425.336	222.9
425.797	227.6
426.257	227.7
426.717	208.2
427.177	202
427.637	191.9
428.097	208.2
428.556	211.4
429.016	236.5
429.476	228.4
429.936	240.4
430.396	245.2
430.856	258
431.315	270.1
431.775	299.6
432.235	322.9
432.694	300.2
433.154	314.4
433.614	326.7
434.073	275.2
434.533	245.9
434.993	230.2
435.452	237.6
435.912	245.8
436.371	242
436.83	244.7
437.29	230.8
437.749	215.5
438.209	206.9
438.668	223.1
439.127	233.1
439.587	224.6
440.046	208.6
440.505	214.2
440.964	231.4
441.424	256.7
441.883	252
442.342	224
442.801	195.6
443.26	195
443.719	192
444.178	192.7
444.637	186.8
445.096	193.6
445.555	196.3
446.014	198.2
446.473	199.6
446.932	199.2
447.391	206.3
447.849	201.9
448.308	195.2
448.767	201.2
449.226	208.9
449.685	216.8
450.143	215.2
450.602	212.4
451.061	201.7
451.519	198.6
451.978	207.7
452.436	202.5
452.895	207.6
453.353	214.6
453.812	207.4
454.27	202.7
454.729	211.5
455.187	211.8
455.646	212.8
456.104	216.4
456.562	223.3
457.021	226.4
457.479	221.9
457.937	224.7
458.395	225
458.854	210.2
459.312	222
459.77	226.7
460.228	214.4
460.686	216.3
461.144	213.6
461.602	216.9
462.06	213
462.518	221.6
462.976	228.8
463.434	222.6
463.892	232.9
464.35	226.4
464.808	244.1
465.266	234
465.724	233.2
466.181	237.8
466.639	236.6
467.097	247.6
467.555	262.1
468.012	266.3
468.47	262.2
468.928	280.2
469.385	295.8
469.843	295.4
470.3	295.8
470.758	308.9
471.215	321.1
471.673	336
472.13	340.3
472.588	352.3
473.045	319.2
473.503	334.4
473.96	340.7
474.417	339.1
474.875	364.3
475.332	396
475.789	400.3
476.246	403.7
476.704	419.4
477.161	437.1
477.618	447.2
478.075	478.8
478.532	524.9
478.989	580.5
479.446	661.2
479.903	653.3
480.36	690.9
480.817	737.9
481.274	827.2
481.731	927.8
482.188	1002.9
482.645	1127.2
483.102	1217.4
483.558	1335.7
484.015	1396.7
484.472	1377.5
484.929	1332.4
485.385	1291.7
485.842	1248
486.299	1194
486.755	1103.1
487.212	948.4
487.668	802.6
488.125	747.5
488.582	679.8
489.038	657
489.494	624.7
489.951	596.3
490.407	572
490.864	567.3
491.32	561.1
491.776	555.1
492.233	558.3
492.689	527
493.145	520.4
493.602	515.5
494.058	525.1
494.514	519.6
494.97	538.8
495.426	544.4
495.882	525
496.338	524.2
496.794	535.6
497.251	527.5
497.707	541.1
498.163	543.4
498.618	552.3
499.074	543.2
499.53	571
499.986	559.7
500.442	555.4
500.898	539.8
501.354	543.5
501.809	540.4
502.265	546.9
502.721	555.1
503.177	569.5
503.632	561
504.088	577.8
504.543	594.6
504.999	594.6
505.455	562.1
505.91	542
506.366	536.7
506.821	531.9
507.277	533.8
507.732	541.4
508.187	535.7
508.643	545.6
509.098	531.9
509.553	559.6
510.009	560.4
510.464	560.8
510.919	585.9
511.375	591.7
511.83	598.1
512.285	609.6
512.74	642.7
513.195	640.8
513.65	653.5
514.105	647.9
514.56	661.6
515.015	668.1
515.47	675.3
515.925	667
516.38	663
516.835	681.1
517.29	670.6
517.745	667.6
518.2	657.3
518.655	623
519.109	626
519.564	621.8
520.019	613.8
520.474	609.3
520.928	609.4
521.383	623.1
521.838	605.4
522.292	606.7
522.747	607.5
523.201	594.4
523.656	587.4
524.11	586.1
524.565	580.2
525.019	589.2
525.474	598.1
525.928	593.1
526.382	580.2
526.837	582.8
527.291	580.4
527.745	585.1
528.2	578.8
528.654	587.8
529.108	575.9
529.562	575.9
530.016	585.5
530.47	579
530.925	575.5
531.379	585.8
531.833	586.5
532.287	579
532.741	587
533.195	589.3
533.649	590.9
534.103	592.5
534.556	582
535.01	588.7
535.464	587.6
535.918	596.3
536.372	600.6
536.826	602.5
537.279	582.6
537.733	589.2
538.187	594.4
538.64	590.7
539.094	600.7
539.548	611.8
540.001	597.1
540.455	593.8
540.908	600.6
541.362	608.3
541.815	617.9
542.269	630
542.722	627.3
543.175	632.7
543.629	637.6
544.082	653.1
544.536	647
544.989	643.2
545.442	647.6
545.895	654.1
546.349	661.5
546.802	653.8
547.255	654.1
547.708	661.2
548.161	669.7
548.614	683.6
549.067	686.4
549.52	668.1
549.973	662.7
550.426	661.1
550.879	654.1
551.332	655.7
551.785	647.8
552.238	665.4
552.691	669.9
553.144	675.3
553.596	698.4
554.049	708.7
554.502	725.5
554.955	742.2
555.407	737.5
555.86	726.9
556.313	727.5
556.765	719.1
557.218	716.2
557.67	722.6
558.123	709.7
558.576	708.7
559.028	711.1
559.48	714.5
559.933	702.6
560.385	679.4
560.838	657.5
561.29	630.9
561.742	628.1
562.195	616.3
562.647	610.4
563.099	623.9
563.551	625.8
564.004	633.5
564.456	626.3
564.908	609.4
565.36	600.9
565.812	587.2
566.264	581.3
566.716	579.7
567.168	584.7
567.62	578.1
568.072	559.7
568.524	556.8
568.976	544
569.428	541.7
569.88	535.5
570.332	538.5
570.784	544.5
571.235	548.8
571.687	550.2
572.139	553.3
572.59	567
573.042	558.6
573.494	566.9
573.945	560.6
574.397	547.9
574.849	551.7
575.3	540.9
575.752	544.2
576.203	540.9
576.655	542
577.106	535.5
577.557	528.4
578.009	527.1
578.46	520.2
578.912	516
579.363	523.8
579.814	523.6
580.265	524.5
580.717	525.4
581.168	530.7
581.619	530
582.07	523.6
582.521	535.1
582.972	522
583.423	532.8
583.875	534.1
584.326	539.8
584.777	583.4
585.227	647.4
585.678	724.1
586.129	777.5
586.58	841.3
587.031	918.9
587.482	1053.5
587.933	1212.6
588.384	1055.7
588.834	773.4
589.285	630.1
589.736	609.6
590.186	597.9
590.637	606.8
591.088	581.7
591.538	574.8
591.989	567
592.439	562.7
592.89	563
593.34	547.6
593.791	557.2
594.241	555.7
594.692	539.3
595.142	540.6
595.593	536.3
596.043	545.5
596.493	554.8
596.943	554.1
597.394	552.8
597.844	551
598.294	565.8
598.744	581.5
599.195	597.4
599.645	631.7
600.095	660.9
600.545	708.3
600.995	737.2
601.445	793.4
601.895	837.6
602.345	872.8
602.795	857.4
603.245	820.2
603.695	778.6
604.145	736.6
604.594	694.8
605.044	658.4
605.494	609.1
605.944	579.8
606.393	562.4
606.843	558.6
607.293	558
607.743	548.2
608.192	554.2
608.642	567.2
609.091	567.6
609.541	582.7
609.99	594
610.44	570.5
610.889	544.7
611.339	533.5
611.788	524.5
612.238	538.2
612.687	552.7
613.136	550.8
613.586	568
614.035	563.8
614.484	570.3
614.933	567.7
615.383	576.4
615.832	556.8
616.281	541.6
616.73	518.6
617.179	514.6
617.628	493
618.077	479.5
618.526	475.6
618.975	466.7
619.424	469.5
619.873	466.6
620.322	466
620.771	450.6
621.22	460.5
621.669	457
622.118	447.2
622.567	430.1
623.015	421.1
623.464	430.1
623.913	425.4
624.361	420.2
624.81	417.4
625.259	410.1
625.707	416.7
626.156	411.2
626.604	427.9
627.053	415
627.501	422.5
627.95	425.2
628.398	439.1
628.847	426.6
629.295	422.5
629.744	432.2
630.192	420.9
630.64	427.7
631.089	411.7
631.537	422.8
631.985	427.9
632.433	431.3
632.881	442.7
633.33	469.8
633.778	452.6
634.226	408
634.674	418.8
635.122	421
635.57	432.5
636.018	457.2
636.466	433.8
636.914	417.6
637.362	420.5
637.81	431.4
638.258	436.3
638.705	437.2
639.153	443.6
639.601	447
640.049	468.9
640.497	494.9
640.944	516.8
641.392	476.6
641.84	463.2
642.287	435.5
642.735	415.6
643.182	415.6
643.63	424.2
644.078	431.9
644.525	440.1
644.973	440.4
645.42	454.8
645.867	454.2
646.315	469.8
646.762	485
647.21	505.2
647.657	526.5
648.104	558.5
648.551	567.5
648.999	623.7
649.446	658.9
649.893	735
650.34	836.6
650.787	1003.8
651.234	1242.7
651.682	1598.8
652.129	2183.9
652.576	3155.2
653.023	4691.1
653.47	6543
653.917	8238.1
654.363	9765.8
654.81	11022.2
655.257	10481.8
655.704	6796.6
656.151	3952.6
656.598	2537.2
657.044	1788.4
657.491	1384.1
657.938	1100.8
658.385	918.2
658.831	798.5
659.278	718.7
659.724	627.9
660.171	583.8
660.618	527.8
661.064	499.5
661.511	474.9
661.957	470.3
662.404	454.2
662.85	462.4
663.296	440.4
663.743	410.4
664.189	391.5
664.635	385.3
665.082	385.1
665.528	385
665.974	372
666.42	372.8
666.867	366.3
667.313	351.7
667.759	355.2
668.205	349.9
668.651	352.3
669.097	354.5
669.543	373.9
669.989	344.4
670.435	323.8
670.881	324.2
671.327	324.7
671.773	341.6
672.219	349.3
672.665	396.6
673.11	421
673.556	460.4
674.002	491.2
674.448	482.7
674.893	394.5
675.339	345.1
675.785	320.3
676.23	294.9
676.676	282.9
677.122	275.3
677.567	268.3
678.013	269.4
678.458	251.1
678.904	261
679.349	245.5
679.794	256.2
680.24	250.3
680.685	248.4
681.131	255.1
681.576	253
682.021	252.6
682.466	252.3
682.912	248.6
683.357	251
683.802	262.6
684.247	285.2
684.692	318.5
685.137	353.8
685.583	392.2
686.028	419.8
686.473	375.6
686.918	323.7
687.363	291.6
687.807	283.2
688.252	263.6
688.697	256.3
689.142	238.3
689.587	241.4
690.032	226.6
690.477	240.9
690.921	251.8
691.366	274.4
691.811	290
692.255	314.7
692.7	328.8
693.145	349.5
693.589	482.8
694.034	793
694.478	1091.5
694.923	1285.5
695.367	1706.1
695.812	887.9
696.256	371.8
696.701	274.7
697.145	240.7
697.59	229
698.034	225
698.478	241
698.922	234.3
699.367	235.3
699.811	250.4
700.255	253.1
700.699	273.2
701.143	302.1
701.588	345.7
702.032	378.3
702.476	372.9
702.92	357.8
703.364	352.4
703.808	446.7
704.252	713.2
704.696	1029.6
705.14	1227.9
705.584	1604.7
706.027	782.4
706.471	378.7
706.915	280.5
707.359	252.4
707.803	225.3
708.246	224.1
708.69	225.4
709.134	229.9
709.577	218.7
710.021	232.6
710.465	221.9
710.908	213.5
711.352	209.2
711.795	222.1
712.239	240.6
712.682	271.6
713.126	293.7
713.569	336.6
714.012	266
714.456	231.4
714.899	210.7
715.342	193.8
715.786	187.3
716.229	185.6
716.672	184
717.115	181.5
717.558	174.2
718.002	176.4
718.445	183.3
718.888	200.2
719.331	202.8
719.774	219.1
720.217	216.1
720.66	202.3
721.103	183.1
721.546	180.8
721.989	177.4
722.432	160.4
722.874	171.7
723.317	163.8
723.76	167.3
724.203	180.7
724.645	225.7
725.088	307.1
725.531	407.3
725.974	472.6
726.416	403.3
726.859	216
727.301	175.6
727.744	176.1
728.187	165.1
728.629	176.9
729.071	170.3
729.514	188.8
729.956	194.2
730.399	198.2
730.841	201.3
731.283	196.7
731.726	189.8
732.168	187.7
732.61	190.5
733.053	197.3
733.495	221.8
733.937	244.5
734.379	278
734.821	304.9
735.263	376
735.705	573.5
736.148	1099.7
736.59	1850.7
737.032	2291.6
737.474	1862.4
737.916	582.8
738.357	304.7
738.799	232.4
739.241	218.1
739.683	194.6
740.125	203.6
740.567	211.7
741.008	227.1
741.45	233.6
741.892	226.4
742.334	259.7
742.775	268.8
743.217	246.8
743.658	194.6
744.1	185.4
744.542	187.6
744.983	231.1
745.425	252.4
745.866	253.2
746.307	203.5
746.749	199.9
747.19	221.8
747.632	306
748.073	594.7
748.514	1303.8
748.956	2080.4
749.397	2595.5
749.838	2150.6
750.279	2237.9
750.72	1117.4
751.162	397.4
751.603	227.7
752.044	175.7
752.485	151.6
752.926	143.4
753.367	147.7
753.808	135.8
754.249	134.4
754.69	131.7
755.131	125.4
755.572	126.3
756.013	124.1
756.453	132.7
756.894	126
757.335	137.1
757.776	143
758.216	142.9
758.657	138
759.098	141.8
759.538	157
759.979	189.9
760.42	261.6
760.86	485.8
761.301	1258.7
761.741	3164.4
762.182	4967.5
762.622	3492.2
763.063	963.7
763.503	388.9
763.943	250.5
764.384	252.1
764.824	299.4
765.264	334.5
765.705	228.8
766.145	150.2
766.585	134.9
767.025	127.7
767.465	129.5
767.906	174.5
768.346	227.1
768.786	253.9
769.226	190.5
769.666	219.1
770.106	416.4
770.546	1071.2
770.986	1952.4
771.426	1797.5
771.866	578.2
772.306	233.7
772.745	152.1
773.185	118.8
773.625	121.3
774.065	117.1
774.505	134.2
774.944	206.3
775.384	456.3
775.824	875.9
776.263	881.2
776.703	366.8
777.142	155.3
777.582	114.4
778.021	106.1
778.461	97.1
778.9	97.5
779.34	99.7
779.779	83.9
780.219	75.3
780.658	75.8
781.097	79.7
781.537	77.4
781.976	72.7
782.415	75
782.855	66
783.294	67.1
783.733	73.4
784.172	73.8
784.611	77
785.05	76.8
785.489	79.5
785.928	78.6
786.367	85.7
786.806	86.3
787.245	91.3
787.684	93.3
788.123	101.3
788.562	94
789.001	92.7
789.44	92
789.879	78.2
790.317	84.4
790.756	91.6
791.195	86.8
791.634	101.7
792.072	142.4
792.511	241.8
792.95	685.6
793.388	1579.8
793.827	1488.7
794.265	511.2
794.704	208.3
795.142	128.4
795.581	114.1
796.019	91.1
796.458	88.6
796.896	84.6
797.334	88.4
797.773	110.1
798.211	152.7
798.649	299.4
799.087	724
799.526	1150.7
799.964	1467
800.402	1546.9
800.84	567.4
801.278	220.9
801.716	134.2
802.154	111.2
802.592	110.9
803.03	100
803.468	87.5
803.906	102.7
804.344	106.5
804.782	97.4
805.22	96.6
805.658	85.6
806.096	106.8
806.533	115.5
806.971	126.9
807.409	148.2
807.847	210.3
808.284	453.6
808.722	1333.8
809.16	2475.7
809.597	2260.2
810.035	4077.7
