Data from 20171114-ORNL-Ar_H_NY_Subt18_08-03-43-773.txt Node
Date: Tue Nov 14 08:03:43 EST 2017
User: Ender
Spectrometer: HR+D1039
Trigger mode: 0
Integration Time (sec): 2.730000E-2
Scans to average: 10
Electric dark correction enabled: true
Nonlinearity correction enabled: false
Boxcar width: 0
XAxis mode: Wavelengths
Number of Pixels in Spectrum: 2048
>>>>>Begin Spectral Data<<<<<
187.836	-7.66
188.309	-7.66
188.782	-7.66
189.255	3.24
189.728	-0.66
190.201	9.24
190.674	1.64
191.147	5.64
191.619	-5.96
192.092	-1.86
192.565	-0.76
193.038	-0.66
193.511	1.54
193.984	-0.96
194.456	-3.06
194.929	0.64
195.402	-0.36
195.874	0.04
196.347	-0.86
196.82	-11.56
197.292	7.94
197.765	-4.46
198.237	-4.56
198.71	1.34
199.182	-1.36
199.655	0.54
200.127	4.64
200.6	-3.66
201.072	-3.86
201.544	-2.76
202.017	-4.26
202.489	5.34
202.961	3.54
203.433	-2.56
203.906	-4.96
204.378	-5.76
204.85	-5.96
205.322	-8.26
205.794	1.44
206.266	-9.16
206.739	-8.86
207.211	1.54
207.683	-11.56
208.155	-3.36
208.627	-4.16
209.099	-4.26
209.57	-9.26
210.042	-6.06
210.514	0.34
210.986	-3.46
211.458	-13.66
211.93	-4.96
212.402	-4.66
212.873	-10.66
213.345	-4.16
213.817	-13.06
214.288	-1.46
214.76	-14.26
215.232	-2.46
215.703	-4.66
216.175	2.24
216.646	-5.86
217.118	-10.16
217.589	-10.16
218.061	-3.76
218.532	-3.66
219.004	-2.26
219.475	-5.26
219.946	-9.36
220.418	-3.26
220.889	2.04
221.36	-3.36
221.832	-2.86
222.303	-6.86
222.774	-5.06
223.245	-12.36
223.717	-2.76
224.188	-3.86
224.659	-8.66
225.13	-6.76
225.601	-1.56
226.072	9.34
226.543	-2.16
227.014	8.04
227.485	-2.06
227.956	-3.46
228.427	-4.86
228.898	0.54
229.369	3.64
229.839	-2.36
230.31	-7.36
230.781	1.64
231.252	-0.36
231.722	-5.16
232.193	-3.46
232.664	-3.46
233.135	0.54
233.605	-3.26
234.076	-5.76
234.546	-4.46
235.017	-2.46
235.487	1.24
235.958	-9.16
236.428	-2.16
236.899	-6.36
237.369	0.04
237.84	-5.26
238.31	0.04
238.78	-3.96
239.251	-10.96
239.721	-5.26
240.191	-7.16
240.662	1.24
241.132	-4.36
241.602	-2.36
242.072	-6.76
242.542	3.24
243.013	-2.16
243.483	0.44
243.953	3.54
244.423	-0.16
244.893	-5.66
245.363	-1.16
245.833	-2.16
246.303	-3.76
246.773	1.64
247.243	-3.76
247.712	-0.66
248.182	4.64
248.652	-0.76
249.122	-10.16
249.592	0.34
250.061	4.44
250.531	4.84
251.001	-4.66
251.471	4.24
251.94	7.94
252.41	3.74
252.879	-6.46
253.349	5.24
253.818	1.04
254.288	2.14
254.757	1.04
255.227	-5.16
255.696	0.74
256.166	0.64
256.635	-0.86
257.105	-4.26
257.574	-6.06
258.043	-0.76
258.513	-8.26
258.982	-4.66
259.451	-3.56
259.92	-4.16
260.389	-2.76
260.859	12.84
261.328	-1.36
261.797	5.64
262.266	-0.96
262.735	8.44
263.204	-0.36
263.673	-3.96
264.142	3.44
264.611	-6.56
265.08	-5.26
265.549	-6.26
266.018	-1.36
266.487	-6.06
266.955	-7.36
267.424	-1.66
267.893	4.34
268.362	-6.56
268.83	3.04
269.299	5.84
269.768	-0.76
270.236	-1.26
270.705	-8.06
271.174	1.84
271.642	0.34
272.111	-1.96
272.579	3.84
273.048	4.04
273.516	-2.56
273.985	4.64
274.453	5.84
274.922	7.64
275.39	4.74
275.858	-2.86
276.327	7.54
276.795	5.94
277.263	4.24
277.731	14.84
278.2	3.14
278.668	2.94
279.136	2.94
279.604	0.94
280.072	7.64
280.54	7.04
281.008	1.94
281.477	13.24
281.945	8.44
282.413	7.14
282.881	11.34
283.348	-1.46
283.816	10.94
284.284	7.24
284.752	13.84
285.22	-3.06
285.688	7.64
286.156	10.34
286.623	15.74
287.091	7.24
287.559	11.74
288.026	10.14
288.494	8.84
288.962	-5.26
289.429	0.94
289.897	13.64
290.364	9.64
290.832	15.44
291.3	9.14
291.767	8.84
292.234	8.34
292.702	3.44
293.169	9.04
293.637	10.04
294.104	6.74
294.571	1.14
295.039	7.04
295.506	9.44
295.973	12.44
296.44	6.34
296.908	10.34
297.375	8.14
297.842	12.44
298.309	8.54
298.776	5.64
299.243	10.14
299.71	5.14
300.177	16.64
300.644	15.84
301.111	11.84
301.578	17.24
302.045	10.54
302.512	17.64
302.979	15.94
303.446	11.84
303.913	13.74
304.379	8.44
304.846	21.34
305.313	15.54
305.78	19.04
306.246	11.44
306.713	13.54
307.18	14.84
307.646	18.64
308.113	22.94
308.579	18.24
309.046	21.34
309.512	21.34
309.979	15.04
310.445	20.54
310.912	21.44
311.378	22.34
311.845	19.04
312.311	21.14
312.777	25.64
313.244	26.44
313.71	25.44
314.176	22.24
314.642	19.34
315.109	23.64
315.575	30.14
316.041	29.34
316.507	19.84
316.973	23.04
317.439	24.44
317.905	28.14
318.371	24.44
318.837	26.44
319.303	24.14
319.769	25.84
320.235	27.84
320.701	24.84
321.167	28.44
321.633	27.54
322.099	32.54
322.564	34.24
323.03	31.54
323.496	29.24
323.962	32.04
324.427	34.44
324.893	37.44
325.359	35.04
325.824	33.34
326.29	35.54
326.755	30.94
327.221	34.84
327.686	38.34
328.152	34.24
328.617	37.84
329.083	38.94
329.548	44.94
330.014	43.94
330.479	32.64
330.944	35.54
331.41	38.34
331.875	37.54
332.34	31.14
332.805	34.64
333.271	38.74
333.736	33.04
334.201	41.64
334.666	43.14
335.131	52.54
335.596	44.64
336.061	42.64
336.526	34.14
336.991	41.34
337.456	48.54
337.921	46.84
338.386	40.44
338.851	41.14
339.316	43.14
339.781	41.44
340.246	52.14
340.711	47.14
341.175	47.74
341.64	34.24
342.105	56.74
342.569	47.94
343.034	56.14
343.499	50.24
343.963	45.24
344.428	57.24
344.893	52.44
345.357	50.34
345.822	53.94
346.286	61.74
346.751	68.34
347.215	58.24
347.679	61.74
348.144	80.24
348.608	77.94
349.073	60.74
349.537	65.54
350.001	72.94
350.465	77.54
350.93	76.14
351.394	74.64
351.858	65.54
352.322	81.84
352.786	78.44
353.25	90.74
353.715	95.34
354.179	89.64
354.643	98.74
355.107	107.74
355.571	96.94
356.035	98.34
356.498	97.04
356.962	93.84
357.426	111.24
357.89	105.14
358.354	79.24
358.818	82.34
359.281	71.64
359.745	79.84
360.209	75.54
360.673	74.84
361.136	83.04
361.6	84.34
362.064	77.94
362.527	84.64
362.991	98.84
363.454	80.74
363.918	75.14
364.381	78.74
364.845	86.14
365.308	80.84
365.772	91.64
366.235	88.74
366.698	79.54
367.162	87.94
367.625	81.14
368.088	94.54
368.552	90.44
369.015	88.14
369.478	95.04
369.941	102.14
370.404	88.24
370.867	102.64
371.331	103.64
371.794	108.24
372.257	102.54
372.72	98.74
373.183	100.54
373.646	97.74
374.109	100.24
374.572	108.14
375.035	100.84
375.497	105.34
375.96	106.44
376.423	104.44
376.886	113.44
377.349	117.24
377.811	108.44
378.274	109.54
378.737	118.54
379.199	115.14
379.662	111.54
380.125	112.54
380.587	116.84
381.05	119.94
381.512	124.34
381.975	126.34
382.437	128.64
382.9	122.84
383.362	129.74
383.825	135.64
384.287	128.54
384.75	122.34
385.212	135.54
385.674	136.34
386.136	136.04
386.599	127.84
387.061	125.84
387.523	128.54
387.985	131.64
388.447	143.64
388.91	135.74
389.372	138.84
389.834	140.24
390.296	131.84
390.758	136.14
391.22	145.84
391.682	158.74
392.144	152.14
392.606	151.04
393.068	150.44
393.529	164.54
393.991	155.04
394.453	138.14
394.915	149.94
395.377	147.54
395.838	147.64
396.3	143.94
396.762	161.34
397.224	146.34
397.685	148.24
398.147	148.44
398.608	143.04
399.07	144.14
399.531	144.94
399.993	159.44
400.454	172.44
400.916	160.34
401.377	161.34
401.839	160.64
402.3	161.14
402.762	184.34
403.223	194.34
403.684	188.84
404.145	181.34
404.607	174.84
405.068	175.64
405.529	179.04
405.99	196.24
406.451	188.74
406.913	181.94
407.374	190.74
407.835	188.24
408.296	187.34
408.757	193.74
409.218	200.44
409.679	196.94
410.14	199.04
410.601	193.74
411.062	197.34
411.522	199.24
411.983	195.74
412.444	196.74
412.905	207.14
413.366	205.64
413.826	216.74
414.287	240.14
414.748	307.14
415.208	281.44
415.669	244.54
416.13	228.54
416.59	229.84
417.051	242.04
417.511	251.54
417.972	277.24
418.432	289.44
418.893	335.14
419.353	287.04
419.814	230.04
420.274	202.94
420.734	204.34
421.195	215.74
421.655	206.14
422.115	219.94
422.576	213.64
423.036	225.14
423.496	231.74
423.956	237.34
424.416	253.84
424.876	299.64
425.336	283.34
425.797	286.24
426.257	283.84
426.717	259.64
427.177	250.34
427.637	236.74
428.097	252.44
428.556	264.24
429.016	287.14
429.476	282.24
429.936	297.64
430.396	297.24
430.856	308.44
431.315	327.14
431.775	365.14
432.235	398.64
432.694	367.54
433.154	379.64
433.614	398.64
434.073	349.44
434.533	304.94
434.993	288.64
435.452	291.74
435.912	298.54
436.371	297.94
436.83	290.64
437.29	273.24
437.749	260.34
438.209	255.24
438.668	284.04
439.127	289.44
439.587	270.34
440.046	261.74
440.505	275.04
440.964	287.74
441.424	320.14
441.883	307.14
442.342	278.94
442.801	245.54
443.26	242.84
443.719	243.14
444.178	246.94
444.637	239.34
445.096	242.14
445.555	248.24
446.014	246.64
446.473	251.84
446.932	258.44
447.391	259.94
447.849	256.94
448.308	238.34
448.767	244.04
449.226	260.14
449.685	264.44
450.143	271.84
450.602	261.14
451.061	252.44
451.519	245.94
451.978	243.64
452.436	248.54
452.895	249.84
453.353	269.74
453.812	260.04
454.27	263.84
454.729	263.04
455.187	255.34
455.646	264.84
456.104	269.44
456.562	274.64
457.021	283.64
457.479	276.54
457.937	286.04
458.395	287.44
458.854	272.24
459.312	275.84
459.77	279.84
460.228	273.54
460.686	260.54
461.144	267.64
461.602	265.74
462.06	267.24
462.518	276.04
462.976	281.34
463.434	270.84
463.892	279.84
464.35	293.44
464.808	301.94
465.266	281.04
465.724	289.34
466.181	297.44
466.639	291.14
467.097	309.94
467.555	319.54
468.012	317.04
468.47	323.24
468.928	336.04
469.385	354.64
469.843	348.64
470.3	366.44
470.758	360.24
471.215	384.44
471.673	408.24
472.13	408.64
472.588	422.34
473.045	395.34
473.503	399.14
473.96	416.34
474.417	421.04
474.875	439.14
475.332	473.54
475.789	470.54
476.246	476.74
476.704	494.64
477.161	518.94
477.618	518.54
478.075	554.64
478.532	607.44
478.989	663.24
479.446	755.44
479.903	743.04
480.36	772.54
480.817	815.04
481.274	914.74
481.731	990.14
482.188	1078.44
482.645	1189.54
483.102	1275.64
483.558	1384.54
484.015	1431.54
484.472	1427.74
484.929	1374.64
485.385	1330.74
485.842	1306.44
486.299	1265.24
486.755	1202.24
487.212	1048.74
487.668	916.44
488.125	842.64
488.582	773.64
489.038	734.94
489.494	703.04
489.951	684.54
490.407	662.44
490.864	652.44
491.32	634.84
491.776	640.54
492.233	633.04
492.689	608.14
493.145	605.84
493.602	604.14
494.058	618.14
494.514	608.74
494.97	620.64
495.426	633.34
495.882	609.84
496.338	586.34
496.794	599.24
497.251	590.34
497.707	614.84
498.163	610.74
498.618	615.74
499.074	616.74
499.53	631.44
499.986	638.34
500.442	619.74
500.898	603.94
501.354	588.74
501.809	609.24
502.265	606.84
502.721	616.24
503.177	629.94
503.632	621.04
504.088	628.54
504.543	631.14
504.999	652.04
505.455	631.44
505.91	611.84
506.366	624.94
506.821	628.64
507.277	621.14
507.732	627.24
508.187	618.34
508.643	632.24
509.098	617.64
509.553	630.34
510.009	643.94
510.464	647.14
510.919	663.44
511.375	665.14
511.83	675.04
512.285	691.34
512.74	710.44
513.195	729.74
513.65	716.84
514.105	732.54
514.56	719.74
515.015	724.14
515.47	739.54
515.925	734.34
516.38	740.44
516.835	745.34
517.29	742.44
517.745	735.14
518.2	722.64
518.655	713.04
519.109	700.94
519.564	693.74
520.019	680.64
520.474	686.04
520.928	683.84
521.383	673.04
521.838	682.14
522.292	671.14
522.747	666.74
523.201	669.14
523.656	653.54
524.11	657.34
524.565	663.64
525.019	647.04
525.474	655.54
525.928	648.84
526.382	647.94
526.837	646.44
527.291	661.24
527.745	643.94
528.2	654.24
528.654	644.44
529.108	640.24
529.562	645.34
530.016	635.44
530.47	632.24
530.925	643.04
531.379	645.14
531.833	638.74
532.287	635.14
532.741	637.04
533.195	634.04
533.649	636.64
534.103	642.84
534.556	632.84
535.01	636.94
535.464	640.74
535.918	644.74
536.372	643.54
536.826	654.84
537.279	634.24
537.733	642.14
538.187	646.34
538.64	640.34
539.094	648.74
539.548	651.34
540.001	644.44
540.455	648.34
540.908	653.64
541.362	669.94
541.815	677.74
542.269	677.54
542.722	682.34
543.175	692.94
543.629	694.74
544.082	688.44
544.536	700.94
544.989	700.84
545.442	706.34
545.895	709.14
546.349	705.24
546.802	708.44
547.255	712.74
547.708	718.54
548.161	726.14
548.614	720.84
549.067	730.34
549.52	725.74
549.973	713.54
550.426	711.34
550.879	699.84
551.332	703.94
551.785	702.94
552.238	702.74
552.691	716.44
553.144	725.24
553.596	736.14
554.049	742.64
554.502	772.74
554.955	782.54
555.407	785.44
555.86	772.54
556.313	761.74
556.765	755.34
557.218	752.54
557.67	761.34
558.123	749.34
558.576	737.14
559.028	743.44
559.48	763.54
559.933	754.24
560.385	721.94
560.838	700.54
561.29	673.14
561.742	678.04
562.195	658.74
562.647	662.14
563.099	671.74
563.551	663.74
564.004	682.04
564.456	657.04
564.908	641.44
565.36	638.34
565.812	617.74
566.264	623.24
566.716	614.04
567.168	596.64
567.62	603.74
568.072	596.74
568.524	591.34
568.976	576.44
569.428	561.54
569.88	575.24
570.332	572.34
570.784	579.54
571.235	585.34
571.687	585.24
572.139	581.04
572.59	598.24
573.042	589.74
573.494	579.04
573.945	587.74
574.397	569.44
574.849	567.74
575.3	563.64
575.752	561.94
576.203	556.94
576.655	568.74
577.106	550.14
577.557	542.24
578.009	556.94
578.46	533.94
578.912	550.24
579.363	541.74
579.814	539.44
580.265	545.04
580.717	545.34
581.168	543.64
581.619	556.14
582.07	564.04
582.521	543.34
582.972	542.94
583.423	549.54
583.875	550.84
584.326	552.14
584.777	560.94
585.227	578.74
585.678	590.94
586.129	599.54
586.58	611.04
587.031	633.64
587.482	659.94
587.933	686.44
588.384	660.44
588.834	631.54
589.285	631.14
589.736	628.54
590.186	625.64
590.637	613.44
591.088	598.44
591.538	587.74
591.989	592.34
592.439	588.44
592.89	579.84
593.34	564.34
593.791	560.74
594.241	543.24
594.692	554.94
595.142	548.84
595.593	542.84
596.043	553.44
596.493	556.64
596.943	557.34
597.394	575.14
597.844	569.84
598.294	583.74
598.744	602.14
599.195	615.34
599.645	635.34
600.095	673.24
600.545	711.04
600.995	753.04
601.445	788.24
601.895	841.24
602.345	884.34
602.795	879.44
603.245	829.94
603.695	790.24
604.145	754.54
604.594	722.94
605.044	674.14
605.494	636.64
605.944	593.34
606.393	578.44
606.843	554.14
607.293	567.04
607.743	556.94
608.192	565.44
608.642	583.44
609.091	581.24
609.541	589.74
609.99	586.04
610.44	585.74
610.889	551.14
611.339	538.34
611.788	524.54
612.238	540.84
612.687	539.24
613.136	542.54
613.586	545.94
614.035	542.94
614.484	545.84
614.933	544.84
615.383	542.54
615.832	544.24
616.281	533.44
616.73	524.14
617.179	504.84
617.628	495.54
618.077	488.24
618.526	475.14
618.975	460.94
619.424	475.24
619.873	461.54
620.322	471.84
620.771	456.34
621.22	458.64
621.669	452.04
622.118	447.24
622.567	442.44
623.015	424.24
623.464	424.74
623.913	418.34
624.361	420.34
624.81	418.34
625.259	417.84
625.707	426.54
626.156	418.04
626.604	424.34
627.053	421.74
627.501	420.24
627.95	427.44
628.398	437.64
628.847	421.34
629.295	430.54
629.744	428.74
630.192	433.04
630.64	420.74
631.089	408.84
631.537	405.24
631.985	392.54
632.433	395.24
632.881	383.34
633.33	401.74
633.778	389.44
634.226	390.94
634.674	395.14
635.122	403.04
635.57	410.84
636.018	418.04
636.466	421.74
636.914	411.54
637.362	421.14
637.81	427.64
638.258	431.34
638.705	424.44
639.153	449.94
639.601	460.44
640.049	468.84
640.497	499.94
640.944	521.14
641.392	484.84
641.84	463.94
642.287	436.84
642.735	411.94
643.182	421.94
643.63	418.44
644.078	417.74
644.525	418.74
644.973	427.94
645.42	440.84
645.867	450.74
646.315	463.94
646.762	482.64
647.21	490.14
647.657	510.24
648.104	538.34
648.551	547.44
648.999	578.14
649.446	642.04
649.893	692.64
650.34	786.54
650.787	930.14
651.234	1134.44
651.682	1448.84
652.129	1939.74
652.576	2714.24
653.023	3976.14
653.47	5473.74
653.917	6896.04
654.363	8116.94
654.81	9163.04
655.257	8727.64
655.704	5822.64
656.151	3465.84
656.598	2269.94
657.044	1622.54
657.491	1266.34
657.938	1015.64
658.385	853.34
658.831	754.04
659.278	666.04
659.724	595.24
660.171	557.44
660.618	507.34
661.064	482.94
661.511	459.74
661.957	448.74
662.404	443.64
662.85	441.44
663.296	431.14
663.743	399.64
664.189	393.34
664.635	388.04
665.082	374.64
665.528	380.14
665.974	368.24
666.42	371.04
666.867	358.94
667.313	345.84
667.759	338.84
668.205	328.14
668.651	328.74
669.097	330.14
669.543	322.94
669.989	319.24
670.435	328.94
670.881	319.64
671.327	335.74
671.773	338.74
672.219	356.44
672.665	398.94
673.11	418.04
673.556	459.84
674.002	488.64
674.448	475.54
674.893	406.44
675.339	350.34
675.785	316.34
676.23	308.54
676.676	284.14
677.122	274.14
677.567	266.54
678.013	265.84
678.458	257.54
678.904	266.84
679.349	252.04
679.794	250.44
680.24	255.74
680.685	245.14
681.131	248.84
681.576	247.44
682.021	248.54
682.466	255.44
682.912	249.94
683.357	252.14
683.802	268.24
684.247	288.34
684.692	321.84
685.137	346.54
685.583	382.44
686.028	400.54
686.473	380.54
686.918	321.74
687.363	304.24
687.807	285.04
688.252	262.24
688.697	252.54
689.142	241.14
689.587	238.24
690.032	231.04
690.477	246.94
690.921	246.54
691.366	282.24
691.811	284.44
692.255	318.14
692.7	323.44
693.145	355.14
693.589	477.34
694.034	778.44
694.478	1087.14
694.923	1278.74
695.367	1689.44
695.812	893.14
696.256	360.84
696.701	250.54
697.145	241.94
697.59	229.84
698.034	232.44
698.478	234.14
698.922	230.24
699.367	233.74
699.811	240.94
700.255	251.64
700.699	267.64
701.143	290.24
701.588	331.74
702.032	362.94
702.476	373.14
702.92	354.14
703.364	347.64
703.808	448.74
704.252	694.84
704.696	1018.74
705.14	1217.54
705.584	1583.14
706.027	788.34
706.471	375.64
706.915	289.34
707.359	244.94
707.803	224.24
708.246	225.84
708.69	222.14
709.134	223.24
709.577	220.44
710.021	228.64
710.465	221.34
710.908	213.44
711.352	212.74
711.795	219.64
712.239	242.44
712.682	269.14
713.126	292.14
713.569	324.74
714.012	256.14
714.456	217.14
714.899	202.94
715.342	194.54
715.786	183.04
716.229	187.14
716.672	187.64
717.115	177.34
717.558	184.84
718.002	173.54
718.445	179.14
718.888	206.64
719.331	211.64
719.774	222.84
720.217	222.84
720.66	204.14
721.103	189.94
721.546	179.44
721.989	172.64
722.432	157.34
722.874	169.74
723.317	159.84
723.76	167.44
724.203	179.24
724.645	216.84
725.088	308.24
725.531	394.74
725.974	466.84
726.416	387.84
726.859	221.64
727.301	171.34
727.744	175.04
728.187	163.54
728.629	169.94
729.071	169.04
729.514	176.24
729.956	187.14
730.399	199.34
730.841	207.74
731.283	194.74
731.726	188.44
732.168	185.84
732.61	193.04
733.053	198.74
733.495	221.54
733.937	252.34
734.379	272.74
734.821	303.84
735.263	372.64
735.705	565.14
736.148	1062.94
736.59	1804.14
737.032	2281.34
737.474	1859.94
737.916	594.44
738.357	309.04
738.799	230.44
739.241	213.24
739.683	191.94
740.125	210.54
740.567	216.04
741.008	236.64
741.45	234.24
741.892	230.44
742.334	256.24
742.775	276.04
743.217	261.04
743.658	202.24
744.1	186.04
744.542	189.74
744.983	239.94
745.425	273.54
745.866	274.74
746.307	210.84
746.749	204.94
747.19	216.54
747.632	306.64
748.073	582.64
748.514	1270.04
748.956	2013.14
749.397	2551.84
749.838	2136.54
750.279	2211.24
750.72	1114.14
751.162	400.44
751.603	228.34
752.044	181.54
752.485	156.64
752.926	148.54
753.367	146.04
753.808	136.24
754.249	128.34
754.69	133.64
755.131	127.84
755.572	132.24
756.013	124.84
756.453	137.24
756.894	134.54
757.335	132.24
757.776	137.34
758.216	142.74
758.657	138.44
759.098	136.84
759.538	158.64
759.979	189.44
760.42	259.44
760.86	470.04
761.301	1228.84
761.741	3091.44
762.182	4910.74
762.622	3505.14
763.063	988.14
763.503	396.04
