Data from 20171114-ORNL-Ar_H_NY_Subt18_08-03-30-124.txt Node
Date: Tue Nov 14 08:03:30 EST 2017
User: Ender
Spectrometer: HR+D1039
Trigger mode: 0
Integration Time (sec): 2.730000E-2
Scans to average: 10
Electric dark correction enabled: true
Nonlinearity correction enabled: false
Boxcar width: 0
XAxis mode: Wavelengths
Number of Pixels in Spectrum: 2048
>>>>>Begin Spectral Data<<<<<
187.836	-6.98
188.309	-6.98
188.782	-6.98
189.255	6.82
189.728	-3.98
190.201	7.52
190.674	1.82
191.147	9.02
191.619	-2.08
192.092	0.72
192.565	3.82
193.038	-1.18
193.511	2.22
193.984	-4.18
194.456	-5.88
194.929	3.32
195.402	-5.48
195.874	-5.48
196.347	1.72
196.82	-11.88
197.292	3.42
197.765	3.42
198.237	-3.18
198.71	1.52
199.182	-8.68
199.655	-3.08
200.127	-1.48
200.6	-8.88
201.072	-5.48
201.544	-8.38
202.017	-5.18
202.489	1.22
202.961	-6.58
203.433	-5.28
203.906	-8.98
204.378	-5.78
204.85	-7.28
205.322	-8.08
205.794	-3.58
206.266	-8.88
206.739	-8.58
207.211	2.32
207.683	-10.38
208.155	-4.58
208.627	-6.18
209.099	-0.68
209.57	-4.88
210.042	-2.08
210.514	-5.28
210.986	-2.48
211.458	-8.98
211.93	-3.68
212.402	-1.18
212.873	-5.08
213.345	-4.28
213.817	-7.78
214.288	-3.88
214.76	-8.38
215.232	-3.98
215.703	-0.28
216.175	-3.98
216.646	-5.88
217.118	0.52
217.589	-4.68
218.061	-0.18
218.532	-3.78
219.004	-3.78
219.475	-6.58
219.946	0.52
220.418	-8.78
220.889	3.32
221.36	1.02
221.832	-4.68
222.303	-4.08
222.774	-5.58
223.245	-8.88
223.717	-9.98
224.188	-6.88
224.659	-6.98
225.13	-7.98
225.601	-4.78
226.072	-0.08
226.543	-0.38
227.014	-2.98
227.485	1.12
227.956	-8.88
228.427	-4.08
228.898	1.22
229.369	4.12
229.839	-6.78
230.31	-8.08
230.781	-3.88
231.252	-4.48
231.722	-4.08
232.193	-1.48
232.664	-6.08
233.135	-1.18
233.605	-7.38
234.076	-15.88
234.546	-5.78
235.017	1.92
235.487	0.32
235.958	-2.68
236.428	-9.08
236.899	-5.38
237.369	-7.08
237.84	-9.68
238.31	-1.58
238.78	-10.18
239.251	-15.98
239.721	-10.38
240.191	-6.68
240.662	-5.28
241.132	-0.08
241.602	-9.78
242.072	-0.78
242.542	-5.28
243.013	-4.78
243.483	-2.38
243.953	-4.18
244.423	-9.58
244.893	-7.98
245.363	2.62
245.833	-0.78
246.303	-8.98
246.773	1.02
247.243	-2.58
247.712	-8.28
248.182	0.32
248.652	2.22
249.122	-7.98
249.592	0.22
250.061	-2.18
250.531	4.92
251.001	-8.38
251.471	3.82
251.94	4.22
252.41	-3.38
252.879	-2.88
253.349	7.82
253.818	3.32
254.288	-5.28
254.757	-0.98
255.227	-10.98
255.696	-6.08
256.166	-2.28
256.635	-1.38
257.105	-5.98
257.574	-4.28
258.043	-9.08
258.513	-9.88
258.982	-3.28
259.451	-6.68
259.92	-8.88
260.389	-7.08
260.859	3.82
261.328	-5.98
261.797	0.62
262.266	-2.48
262.735	5.42
263.204	-4.68
263.673	-7.78
264.142	-1.38
264.611	-7.28
265.08	-9.48
265.549	-10.28
266.018	-6.28
266.487	-10.18
266.955	-14.28
267.424	-9.58
267.893	-0.68
268.362	-12.98
268.83	-3.38
269.299	-2.58
269.768	-11.48
270.236	-1.58
270.705	-9.28
271.174	-8.18
271.642	-4.28
272.111	-11.08
272.579	-7.28
273.048	-5.68
273.516	-1.48
273.985	-2.28
274.453	-1.28
274.922	0.92
275.39	-8.68
275.858	-13.88
276.327	2.12
276.795	5.22
277.263	-3.58
277.731	-0.48
278.2	-3.18
278.668	-7.18
279.136	-4.58
279.604	-7.48
280.072	-2.68
280.54	-5.58
281.008	-0.18
281.477	1.42
281.945	-2.78
282.413	0.32
282.881	1.62
283.348	-10.18
283.816	-7.38
284.284	-5.68
284.752	6.02
285.22	-3.48
285.688	-5.78
286.156	0.72
286.623	1.12
287.091	-7.18
287.559	-1.88
288.026	-5.08
288.494	0.82
288.962	-14.18
289.429	-12.38
289.897	4.72
290.364	0.42
290.832	-6.58
291.3	-3.18
291.767	-6.58
292.234	-4.38
292.702	-9.18
293.169	-4.18
293.637	0.52
294.104	0.92
294.571	-9.68
295.039	-12.98
295.506	-4.48
295.973	1.22
296.44	-3.08
296.908	3.12
297.375	-6.58
297.842	-2.58
298.309	-5.98
298.776	-8.78
299.243	-8.28
299.71	-8.18
300.177	-3.98
300.644	-2.58
301.111	-8.78
301.578	1.92
302.045	-7.58
302.512	-3.28
302.979	1.92
303.446	-7.78
303.913	-6.88
304.379	-6.78
304.846	4.92
305.313	-0.38
305.78	-5.58
306.246	-2.78
306.713	-5.28
307.18	-5.18
307.646	-7.78
308.113	-6.38
308.579	-13.18
309.046	-7.08
309.512	-5.58
309.979	-13.78
310.445	-4.48
310.912	-1.98
311.378	-0.68
311.845	-4.58
312.311	0.42
312.777	-4.08
313.244	-7.28
313.71	7.32
314.176	-2.48
314.642	-8.78
315.109	-10.58
315.575	-4.18
316.041	-1.18
316.507	-2.78
316.973	-3.18
317.439	-3.88
317.905	-3.38
318.371	-5.38
318.837	-2.88
319.303	-11.28
319.769	-5.48
320.235	-5.58
320.701	0.62
321.167	-2.38
321.633	-8.28
322.099	-7.88
322.564	-2.58
323.03	-8.38
323.496	-5.08
323.962	0.62
324.427	-5.58
324.893	0.72
325.359	-1.58
325.824	-5.68
326.29	-6.78
326.755	-5.58
327.221	-2.38
327.686	-0.38
328.152	2.82
328.617	-5.38
329.083	0.92
329.548	6.22
330.014	0.32
330.479	-2.18
330.944	4.32
331.41	1.52
331.875	1.22
332.34	-6.28
332.805	-5.98
333.271	-1.78
333.736	-11.98
334.201	-0.08
334.666	-0.28
335.131	-2.18
335.596	0.32
336.061	-2.78
336.526	-11.28
336.991	-5.78
337.456	2.12
337.921	-4.58
338.386	-10.98
338.851	-5.68
339.316	-1.78
339.781	-6.38
340.246	-0.58
340.711	-1.18
341.175	-4.18
341.64	-10.88
342.105	-5.78
342.569	-3.68
343.034	5.42
343.499	-3.18
343.963	-7.58
344.428	-0.48
344.893	1.02
345.357	-2.78
345.822	-5.98
346.286	-1.28
346.751	-0.98
347.215	-6.88
347.679	-5.48
348.144	0.22
348.608	3.22
349.073	-7.98
349.537	-3.88
350.001	-4.98
350.465	9.22
350.93	-4.28
351.394	-0.08
351.858	-8.08
352.322	5.72
352.786	-2.38
353.25	-1.48
353.715	4.42
354.179	-0.88
354.643	4.72
355.107	-3.68
355.571	-5.98
356.035	0.62
356.498	-6.08
356.962	-3.98
357.426	-1.18
357.89	-5.18
358.354	-3.78
358.818	0.62
359.281	-3.28
359.745	-0.08
360.209	0.12
360.673	-9.28
361.136	0.82
361.6	9.02
362.064	-0.88
362.527	-0.78
362.991	4.82
363.454	-5.18
363.918	-8.48
364.381	-10.78
364.845	-4.78
365.308	6.12
365.772	1.82
366.235	6.02
366.698	-5.68
367.162	-2.58
367.625	-5.68
368.088	-0.18
368.552	-7.78
369.015	-3.18
369.478	0.42
369.941	-1.48
370.404	-5.38
370.867	1.32
371.331	0.72
371.794	0.02
372.257	-5.18
372.72	-1.28
373.183	2.82
373.646	-6.08
374.109	-2.78
374.572	1.52
375.035	-6.08
375.497	-4.88
375.96	-2.58
376.423	-8.78
376.886	-6.38
377.349	-7.78
377.811	-9.18
378.274	-4.48
378.737	0.02
379.199	0.42
379.662	-2.98
380.125	-2.08
380.587	-6.88
381.05	-9.98
381.512	-1.88
381.975	4.92
382.437	-3.38
382.9	-0.48
383.362	-1.18
383.825	-2.48
384.287	-0.48
384.75	-5.58
385.212	-0.08
385.674	2.22
386.136	9.02
386.599	1.92
387.061	3.32
387.523	2.32
387.985	0.62
388.447	14.92
388.91	1.52
389.372	-0.58
389.834	3.12
390.296	-3.78
390.758	-0.38
391.22	2.22
391.682	2.92
392.144	4.02
392.606	-1.68
393.068	-3.68
393.529	2.32
393.991	-5.58
394.453	-3.18
394.915	3.32
395.377	-4.38
395.838	-1.88
396.3	2.92
396.762	2.02
397.224	3.02
397.685	-2.68
398.147	-3.88
398.608	-7.38
399.07	-12.78
399.531	-1.38
399.993	0.52
400.454	2.12
400.916	1.42
401.377	-4.08
401.839	3.32
402.3	-3.38
402.762	3.02
403.223	0.72
403.684	3.52
404.145	-1.68
404.607	2.72
405.068	2.12
405.529	-4.58
405.99	-5.68
406.451	-9.88
406.913	4.82
407.374	-3.18
407.835	2.22
408.296	-0.98
408.757	-4.58
409.218	-0.38
409.679	-0.58
410.14	3.32
410.601	0.62
411.062	7.82
411.522	5.02
411.983	-3.18
412.444	-3.38
412.905	0.32
413.366	-4.18
413.826	4.62
414.287	3.72
414.748	3.12
415.208	1.42
415.669	-2.48
416.13	8.72
416.59	7.92
417.051	8.12
417.511	6.22
417.972	5.32
418.432	1.22
418.893	13.52
419.353	10.72
419.814	5.72
420.274	2.62
420.734	-5.18
421.195	0.92
421.655	-1.08
422.115	2.32
422.576	-3.68
423.036	5.22
423.496	5.82
423.956	7.92
424.416	7.92
424.876	6.92
425.336	3.42
425.797	4.62
426.257	5.82
426.717	-2.88
427.177	13.02
427.637	1.02
428.097	3.62
428.556	0.22
429.016	1.82
429.476	-4.78
429.936	-0.98
430.396	-7.48
430.856	1.42
431.315	8.02
431.775	2.92
432.235	10.62
432.694	3.22
433.154	4.22
433.614	6.12
434.073	-0.78
434.533	6.02
434.993	-0.58
435.452	6.82
435.912	7.82
436.371	8.12
436.83	1.42
437.29	3.12
437.749	0.72
438.209	-1.78
438.668	6.12
439.127	2.52
439.587	4.72
440.046	-4.88
440.505	0.32
440.964	1.02
441.424	2.42
441.883	-1.68
442.342	3.42
442.801	3.42
443.26	3.12
443.719	3.42
444.178	-2.28
444.637	-7.98
445.096	-0.68
445.555	5.32
446.014	2.22
446.473	5.32
446.932	3.32
447.391	-11.18
447.849	4.22
448.308	-0.68
448.767	-6.38
449.226	6.22
449.685	1.62
450.143	9.22
450.602	-2.18
451.061	-2.88
451.519	-2.18
451.978	3.02
452.436	-0.08
452.895	0.72
453.353	4.72
453.812	3.52
454.27	6.02
454.729	6.52
455.187	0.32
455.646	1.42
456.104	5.42
456.562	3.12
457.021	1.72
457.479	3.32
457.937	4.12
458.395	6.12
458.854	-2.78
459.312	1.92
459.77	-4.28
460.228	0.32
460.686	-2.18
461.144	8.82
461.602	-0.18
462.06	-5.18
462.518	2.02
462.976	3.52
463.434	3.42
463.892	-0.08
464.35	-2.08
464.808	-0.38
465.266	-2.88
465.724	2.82
466.181	3.52
466.639	2.12
467.097	4.22
467.555	6.82
468.012	11.02
468.47	0.52
468.928	5.92
469.385	9.82
469.843	6.62
470.3	7.12
470.758	5.82
471.215	4.92
471.673	1.62
472.13	-3.68
472.588	5.92
473.045	3.12
473.503	0.72
473.96	6.22
474.417	6.82
474.875	6.12
475.332	10.22
475.789	6.42
476.246	5.82
476.704	6.02
477.161	6.62
477.618	-4.48
478.075	8.82
478.532	7.32
478.989	3.42
479.446	11.62
479.903	19.52
480.36	14.22
480.817	2.62
481.274	10.02
481.731	11.92
482.188	3.22
482.645	17.82
483.102	10.02
483.558	6.32
484.015	14.52
484.472	16.32
484.929	6.62
485.385	8.92
485.842	14.62
486.299	6.32
486.755	14.22
487.212	15.02
487.668	7.22
488.125	8.22
488.582	7.72
489.038	10.52
489.494	6.02
489.951	5.12
490.407	11.52
490.864	10.22
491.32	12.32
491.776	8.22
492.233	9.02
492.689	-0.48
493.145	2.52
493.602	3.42
494.058	10.22
494.514	1.82
494.97	13.82
495.426	6.62
495.882	3.72
496.338	12.72
496.794	15.12
497.251	5.32
497.707	10.82
498.163	6.32
498.618	11.82
499.074	7.92
499.53	9.42
499.986	9.52
500.442	8.12
500.898	5.72
501.354	6.52
501.809	7.12
502.265	10.12
502.721	12.12
503.177	14.72
503.632	15.32
504.088	11.22
504.543	14.82
504.999	15.82
505.455	6.82
505.91	8.82
506.366	7.82
506.821	7.62
507.277	6.72
507.732	5.62
508.187	9.82
508.643	7.02
509.098	4.22
509.553	12.92
510.009	17.82
510.464	3.62
510.919	13.72
511.375	3.92
511.83	10.12
512.285	3.82
512.74	20.02
513.195	15.32
513.65	11.62
514.105	14.52
514.56	15.02
515.015	17.42
515.47	16.82
515.925	13.62
516.38	11.92
516.835	22.62
517.29	13.82
517.745	18.12
518.2	8.12
518.655	11.82
519.109	6.52
519.564	9.12
520.019	6.52
520.474	0.52
520.928	10.02
521.383	12.92
521.838	6.62
522.292	14.42
522.747	15.72
523.201	13.62
523.656	9.32
524.11	16.02
524.565	10.62
525.019	6.42
525.474	12.12
525.928	8.82
526.382	10.72
526.837	8.42
527.291	7.22
527.745	9.02
528.2	10.72
528.654	8.62
529.108	6.82
529.562	4.52
530.016	7.02
530.47	1.12
530.925	4.92
531.379	4.72
531.833	6.52
532.287	3.62
532.741	2.52
533.195	0.72
533.649	7.42
534.103	12.62
534.556	9.72
535.01	3.12
535.464	2.92
535.918	15.92
536.372	7.52
536.826	7.42
537.279	2.72
537.733	12.22
538.187	7.02
538.64	14.12
539.094	8.82
539.548	2.32
540.001	7.32
540.455	10.22
540.908	11.82
541.362	3.12
541.815	10.02
542.269	13.52
542.722	10.52
543.175	12.52
543.629	9.22
544.082	13.22
544.536	4.52
544.989	6.72
545.442	10.42
545.895	8.62
546.349	12.52
546.802	10.32
547.255	14.02
547.708	5.42
548.161	10.02
548.614	13.72
549.067	24.22
549.52	9.92
549.973	14.52
550.426	8.92
550.879	7.12
551.332	5.72
551.785	13.22
552.238	9.42
552.691	11.92
553.144	10.92
553.596	15.82
554.049	9.22
554.502	10.82
554.955	11.32
555.407	9.72
555.86	14.42
556.313	11.92
556.765	12.52
557.218	20.82
557.67	14.12
558.123	9.42
558.576	5.52
559.028	12.62
559.48	9.52
559.933	18.32
560.385	8.52
560.838	8.32
561.29	6.12
561.742	13.12
562.195	2.62
562.647	2.12
563.099	13.22
563.551	15.82
564.004	10.42
564.456	7.72
564.908	10.42
565.36	7.92
565.812	5.72
566.264	4.82
566.716	7.22
567.168	5.32
567.62	14.42
568.072	3.32
568.524	11.22
568.976	9.52
569.428	4.62
569.88	7.32
570.332	1.42
570.784	3.02
571.235	2.62
571.687	3.42
572.139	10.62
572.59	13.52
573.042	3.52
573.494	2.12
573.945	3.72
574.397	2.42
574.849	9.52
575.3	6.62
575.752	7.92
576.203	7.32
576.655	9.72
577.106	0.02
577.557	3.22
578.009	9.82
578.46	-0.38
578.912	5.92
579.363	4.12
579.814	4.62
580.265	2.12
580.717	1.02
581.168	3.52
581.619	10.42
582.07	6.22
582.521	9.82
582.972	3.22
583.423	4.32
583.875	2.12
584.326	2.02
584.777	5.02
585.227	10.32
585.678	3.62
586.129	4.62
586.58	10.72
587.031	11.02
587.482	17.52
587.933	14.22
588.384	8.32
588.834	2.72
589.285	7.62
589.736	12.72
590.186	10.92
590.637	7.52
591.088	11.42
591.538	16.12
591.989	10.52
592.439	12.62
592.89	11.72
593.34	5.42
593.791	1.42
594.241	2.52
594.692	3.72
595.142	3.82
595.593	1.82
596.043	3.72
596.493	5.92
596.943	8.02
597.394	10.32
597.844	-1.28
598.294	5.22
598.744	9.32
599.195	12.92
599.645	8.12
600.095	8.02
600.545	12.42
600.995	18.12
601.445	28.42
601.895	15.72
602.345	28.82
602.795	16.62
603.245	12.62
603.695	19.92
604.145	4.72
604.594	11.62
605.044	5.32
605.494	4.72
605.944	-0.68
606.393	12.22
606.843	1.92
607.293	13.22
607.743	1.12
608.192	8.62
608.642	6.82
609.091	11.42
609.541	14.32
609.99	6.62
610.44	6.72
610.889	0.42
611.339	6.72
611.788	-0.78
612.238	4.92
612.687	17.82
613.136	7.32
613.586	10.42
614.035	-0.48
614.484	3.52
614.933	-0.18
615.383	6.52
615.832	13.52
616.281	9.22
616.73	6.02
617.179	4.62
617.628	13.12
618.077	6.22
618.526	3.32
618.975	2.62
619.424	7.22
619.873	4.92
620.322	8.92
620.771	1.42
621.22	3.52
621.669	8.02
622.118	8.32
622.567	6.32
623.015	3.32
623.464	4.12
623.913	5.02
624.361	-0.28
624.81	-1.08
625.259	-0.48
625.707	9.32
626.156	-2.18
626.604	9.52
627.053	3.82
627.501	0.72
627.95	-1.88
628.398	-5.28
628.847	-1.08
629.295	-2.28
629.744	1.32
630.192	8.12
630.64	2.82
631.089	-3.28
631.537	3.72
631.985	2.32
632.433	11.22
632.881	6.82
633.33	1.02
633.778	-1.78
634.226	-3.68
634.674	3.52
635.122	6.92
635.57	1.82
636.018	-0.18
636.466	7.32
636.914	2.62
637.362	10.02
637.81	9.52
638.258	8.12
638.705	3.22
639.153	8.72
639.601	2.32
640.049	0.62
640.497	6.62
640.944	13.52
641.392	-4.08
641.84	-0.08
642.287	2.02
642.735	-8.78
643.182	2.42
643.63	4.72
644.078	-2.98
644.525	5.42
644.973	4.12
645.42	2.92
645.867	9.02
646.315	8.12
646.762	0.12
647.21	2.12
647.657	-10.78
648.104	5.02
648.551	6.42
648.999	0.42
649.446	1.82
649.893	-5.18
650.34	1.72
650.787	2.62
651.234	9.62
651.682	2.12
652.129	-3.78
652.576	-4.58
653.023	9.02
653.47	12.12
653.917	4.62
654.363	7.12
654.81	9.12
655.257	2.12
655.704	11.12
656.151	3.72
656.598	3.72
657.044	2.12
657.491	7.12
657.938	-5.68
658.385	-4.88
658.831	4.42
659.278	10.92
659.724	-2.28
660.171	10.12
660.618	4.62
661.064	4.52
661.511	0.52
661.957	2.62
662.404	2.82
662.85	9.22
663.296	8.02
663.743	3.92
664.189	2.02
664.635	-0.28
665.082	-1.78
665.528	-1.78
665.974	2.02
666.42	0.42
666.867	2.72
667.313	-1.98
667.759	6.22
668.205	3.92
668.651	5.12
669.097	0.12
669.543	-6.58
669.989	4.02
670.435	7.92
670.881	1.72
671.327	1.92
671.773	8.42
672.219	2.12
672.665	8.72
673.11	-6.68
673.556	3.22
674.002	9.32
674.448	0.62
674.893	5.92
675.339	2.12
675.785	7.42
676.23	11.52
676.676	-4.68
677.122	3.92
677.567	-3.98
678.013	4.32
678.458	-3.38
678.904	-1.88
679.349	-4.98
679.794	1.42
680.24	-10.08
680.685	-5.68
681.131	-0.88
681.576	-4.78
682.021	3.02
682.466	-3.18
682.912	-4.78
683.357	-8.88
683.802	8.52
684.247	4.72
684.692	7.42
685.137	-0.88
685.583	5.62
686.028	8.22
686.473	2.32
686.918	-0.68
687.363	6.02
687.807	9.02
688.252	4.22
688.697	6.12
689.142	-4.18
689.587	3.92
690.032	-11.28
690.477	2.22
690.921	-1.98
691.366	4.02
691.811	-0.08
692.255	9.52
692.7	8.42
693.145	4.82
693.589	12.02
694.034	27.02
694.478	44.32
694.923	57.42
695.367	75.72
695.812	29.42
696.256	9.82
696.701	2.12
697.145	2.32
697.59	3.62
698.034	-1.38
698.478	0.92
698.922	-1.68
699.367	4.42
699.811	3.02
700.255	4.92
700.699	3.72
701.143	0.22
701.588	7.02
702.032	9.02
702.476	5.02
702.92	3.72
703.364	7.12
703.808	6.02
704.252	23.72
704.696	36.52
705.14	45.72
705.584	75.62
706.027	25.32
706.471	3.02
706.915	-6.88
707.359	-4.28
707.803	-1.88
708.246	-1.88
708.69	3.12
709.134	10.42
709.577	1.92
710.021	11.92
710.465	1.92
710.908	-3.78
711.352	3.02
711.795	3.32
712.239	5.92
712.682	-2.28
713.126	6.82
713.569	10.22
714.012	2.42
714.456	2.92
714.899	2.62
715.342	-13.68
715.786	-9.38
716.229	1.62
716.672	2.62
717.115	-3.38
717.558	2.92
718.002	-4.08
718.445	-0.28
718.888	7.72
719.331	4.52
719.774	2.12
720.217	10.22
720.66	-5.98
721.103	-3.68
721.546	-2.28
721.989	-1.38
722.432	-7.48
722.874	-1.48
723.317	-5.18
723.76	-9.68
724.203	3.42
724.645	5.42
725.088	12.72
725.531	7.32
725.974	12.62
726.416	7.62
726.859	1.12
727.301	0.12
727.744	-6.28
728.187	-3.98
728.629	6.52
729.071	-5.18
729.514	1.62
729.956	-2.88
730.399	2.42
730.841	3.42
731.283	-3.78
731.726	1.62
732.168	-2.78
732.61	-0.18
733.053	4.42
733.495	3.52
733.937	2.12
734.379	2.62
734.821	6.42
735.263	8.62
735.705	15.62
736.148	41.32
736.59	86.02
737.032	98.42
737.474	79.22
737.916	11.32
738.357	6.42
738.799	1.32
739.241	5.82
739.683	-2.38
740.125	0.12
740.567	0.82
741.008	8.22
741.45	8.92
741.892	3.22
742.334	9.72
742.775	0.42
743.217	-0.88
743.658	-3.68
744.1	5.02
744.542	-10.08
744.983	5.12
745.425	-6.18
745.866	5.82
746.307	0.62
746.749	-4.58
747.19	4.82
747.632	11.22
748.073	14.82
748.514	57.52
748.956	93.42
749.397	113.32
749.838	96.72
750.279	103.12
750.72	40.92
751.162	8.82
751.603	4.22
752.044	6.02
752.485	-6.78
752.926	-2.28
753.367	5.82
753.808	2.22
754.249	-0.48
754.69	-5.88
755.131	-5.28
755.572	-4.98
756.013	-1.08
756.453	-1.88
756.894	2.72
757.335	-1.78
757.776	2.92
758.216	-0.58
758.657	-1.88
759.098	-7.08
759.538	0.02
759.979	-8.88
760.42	0.02
760.86	10.02
761.301	38.52
761.741	127.32
762.182	196.32
762.622	137.52
763.063	29.52
763.503	4.42
763.943	-5.88
764.384	3.02
764.824	-0.48
765.264	-4.78
765.705	-2.28
766.145	-7.68
766.585	-6.98
767.025	-6.48
767.465	-14.58
767.906	3.52
768.346	1.22
768.786	-1.18
769.226	-0.38
769.666	7.92
770.106	2.82
770.546	45.62
770.986	89.22
771.426	79.42
771.866	21.82
772.306	8.42
772.745	-4.48
773.185	-6.88
773.625	0.32
774.065	-11.38
774.505	1.82
774.944	-3.18
775.384	1.72
775.824	-1.48
776.263	-4.98
776.703	-5.18
777.142	-4.98
777.582	-1.28
778.021	-6.98
778.461	1.92
778.9	1.82
779.34	4.92
779.779	-6.88
780.219	-12.68
780.658	-7.78
781.097	-2.68
781.537	5.12
781.976	-0.58
782.415	-4.98
782.855	-8.08
783.294	-8.28
783.733	-1.98
784.172	1.02
784.611	-3.38
785.05	-4.98
785.489	1.22
785.928	0.12
786.367	2.12
786.806	-5.38
787.245	0.82
787.684	-6.98
788.123	3.72
788.562	-0.08
789.001	-0.88
789.44	-4.08
789.879	-0.78
790.317	1.12
790.756	-2.98
791.195	-3.48
791.634	-2.08
792.072	5.92
792.511	6.42
792.95	25.92
793.388	69.42
793.827	67.52
794.265	15.52
794.704	0.02
795.142	7.62
795.581	6.62
796.019	5.72
796.458	-0.68
796.896	-9.58
797.334	-6.48
797.773	-4.98
798.211	4.42
798.649	11.82
799.087	35.92
799.526	49.22
799.964	66.92
800.402	70.42
800.84	19.02
801.278	-1.58
801.716	-1.08
802.154	2.52
802.592	4.62
803.03	-1.58
803.468	-8.08
803.906	0.12
804.344	4.12
804.782	-2.28
805.22	-5.58
