Data from 20171114-ORNL-Ar_H_NY_Subt18_08-04-14-619.txt Node
Date: Tue Nov 14 08:04:14 EST 2017
User: Ender
Spectrometer: HR+D1039
Trigger mode: 0
Integration Time (sec): 2.730000E-2
Scans to average: 10
Electric dark correction enabled: true
Nonlinearity correction enabled: false
Boxcar width: 0
XAxis mode: Wavelengths
Number of Pixels in Spectrum: 2048
>>>>>Begin Spectral Data<<<<<
187.836	-5.06
188.309	-5.06
188.782	-5.06
189.255	-0.66
189.728	1.44
190.201	9.44
190.674	-1.66
191.147	6.34
191.619	-7.06
192.092	1.64
192.565	8.64
193.038	0.64
193.511	-4.16
193.984	-2.26
194.456	-2.46
194.929	-1.96
195.402	0.04
195.874	-2.96
196.347	-3.16
196.82	-5.86
197.292	7.54
197.765	0.24
198.237	-4.46
198.71	5.74
199.182	2.74
199.655	4.84
200.127	2.84
200.6	2.04
201.072	-0.66
201.544	4.54
202.017	-3.36
202.489	2.04
202.961	-3.26
203.433	-0.26
203.906	-1.66
204.378	-2.66
204.85	-6.46
205.322	-11.46
205.794	-1.86
206.266	-1.06
206.739	-7.96
207.211	2.44
207.683	-4.26
208.155	-2.66
208.627	-7.16
209.099	-0.76
209.57	-3.06
210.042	-2.96
210.514	-6.96
210.986	-2.36
211.458	-4.76
211.93	-4.86
212.402	2.04
212.873	1.14
213.345	-6.56
213.817	-9.86
214.288	1.04
214.76	-10.86
215.232	-3.06
215.703	-3.26
216.175	0.44
216.646	-2.76
217.118	-6.56
217.589	-0.96
218.061	-0.36
218.532	0.24
219.004	-3.56
219.475	-2.66
219.946	-0.86
220.418	-0.46
220.889	3.04
221.36	-4.36
221.832	-1.76
222.303	-4.36
222.774	1.54
223.245	-2.56
223.717	-0.96
224.188	1.24
224.659	-7.26
225.13	-3.96
225.601	-4.76
226.072	5.34
226.543	0.14
227.014	-2.66
227.485	3.54
227.956	-2.46
228.427	0.14
228.898	0.14
229.369	6.34
229.839	-1.76
230.31	-5.96
230.781	4.64
231.252	-0.16
231.722	-5.96
232.193	-4.76
232.664	-0.66
233.135	10.04
233.605	-0.46
234.076	-2.26
234.546	2.24
235.017	3.44
235.487	-1.46
235.958	-0.86
236.428	-2.16
236.899	8.74
237.369	7.14
237.84	-2.46
238.31	6.34
238.78	7.24
239.251	2.84
239.721	7.84
240.191	3.04
240.662	-0.06
241.132	2.84
241.602	-3.76
242.072	2.74
242.542	10.74
243.013	1.94
243.483	4.54
243.953	1.54
244.423	0.24
244.893	-3.06
245.363	4.14
245.833	2.04
246.303	2.24
246.773	2.84
247.243	0.84
247.712	11.84
248.182	4.44
248.652	10.04
249.122	2.64
249.592	15.94
250.061	29.54
250.531	34.44
251.001	16.74
251.471	24.24
251.94	25.64
252.41	9.34
252.879	7.34
253.349	12.84
253.818	9.74
254.288	6.94
254.757	4.64
255.227	1.84
255.696	8.14
256.166	11.04
256.635	13.74
257.105	15.74
257.574	10.24
258.043	15.14
258.513	8.84
258.982	14.14
259.451	12.64
259.92	10.44
260.389	6.74
260.859	19.94
261.328	14.34
261.797	19.94
262.266	10.34
262.735	15.24
263.204	5.64
263.673	1.94
264.142	5.94
264.611	1.94
265.08	-1.16
265.549	2.24
266.018	-0.46
266.487	1.04
266.955	1.84
267.424	4.74
267.893	7.04
268.362	5.34
268.83	0.14
269.299	10.54
269.768	5.74
270.236	5.34
270.705	2.14
271.174	6.44
271.642	1.04
272.111	8.54
272.579	13.84
273.048	18.34
273.516	28.84
273.985	28.04
274.453	25.14
274.922	19.84
275.39	10.94
275.858	2.74
276.327	8.54
276.795	17.64
277.263	14.84
277.731	26.44
278.2	46.94
278.668	50.64
279.136	45.54
279.604	17.04
280.072	12.94
280.54	11.04
281.008	9.94
281.477	13.44
281.945	14.74
282.413	14.94
282.881	15.44
283.348	1.14
283.816	17.54
284.284	15.24
284.752	18.74
285.22	15.54
285.688	19.44
286.156	17.24
286.623	43.94
287.091	46.64
287.559	32.94
288.026	21.04
288.494	22.34
288.962	9.04
289.429	10.54
289.897	19.74
290.364	11.34
290.832	14.44
291.3	11.64
291.767	15.64
292.234	17.14
292.702	11.64
293.169	15.24
293.637	20.24
294.104	28.74
294.571	8.14
295.039	14.14
295.506	15.24
295.973	19.94
296.44	14.54
296.908	17.84
297.375	18.34
297.842	16.54
298.309	17.34
298.776	14.24
299.243	22.54
299.71	15.74
300.177	19.74
300.644	15.44
301.111	18.84
301.578	17.54
302.045	11.64
302.512	19.84
302.979	23.54
303.446	22.44
303.913	16.24
304.379	19.64
304.846	29.34
305.313	23.14
305.78	23.04
306.246	23.74
306.713	25.24
307.18	21.04
307.646	27.44
308.113	28.14
308.579	24.04
309.046	27.24
309.512	25.04
309.979	11.64
310.445	25.04
310.912	30.94
311.378	33.94
311.845	32.34
312.311	29.04
312.777	28.54
313.244	28.14
313.71	35.54
314.176	28.54
314.642	27.94
315.109	27.04
315.575	30.44
316.041	35.94
316.507	29.84
316.973	32.94
317.439	32.14
317.905	31.64
318.371	29.54
318.837	30.34
319.303	32.04
319.769	32.14
320.235	31.24
320.701	31.24
321.167	33.34
321.633	34.54
322.099	33.14
322.564	41.74
323.03	38.04
323.496	35.74
323.962	36.74
324.427	30.14
324.893	41.44
325.359	30.94
325.824	37.64
326.29	34.54
326.755	38.94
327.221	37.54
327.686	41.84
328.152	41.74
328.617	42.94
329.083	48.34
329.548	46.74
330.014	42.54
330.479	41.64
330.944	41.94
331.41	39.54
331.875	44.74
332.34	41.44
332.805	42.84
333.271	41.64
333.736	32.74
334.201	50.94
334.666	46.94
335.131	48.04
335.596	48.14
336.061	46.54
336.526	36.94
336.991	38.44
337.456	49.44
337.921	44.54
338.386	34.44
338.851	37.14
339.316	45.34
339.781	45.94
340.246	43.24
340.711	41.04
341.175	48.24
341.64	41.04
342.105	52.14
342.569	49.34
343.034	60.04
343.499	52.14
343.963	50.44
344.428	57.94
344.893	58.34
345.357	56.64
345.822	56.14
346.286	56.24
346.751	64.44
347.215	59.44
347.679	65.34
348.144	80.94
348.608	76.94
349.073	61.64
349.537	65.94
350.001	68.24
350.465	76.94
350.93	69.84
351.394	70.74
351.858	64.04
352.322	76.24
352.786	73.14
353.25	84.04
353.715	99.24
354.179	81.94
354.643	104.94
355.107	109.24
355.571	98.64
356.035	97.84
356.498	105.84
356.962	103.44
357.426	114.44
357.89	100.04
358.354	82.54
358.818	79.64
359.281	75.64
359.745	71.64
360.209	64.24
360.673	66.34
361.136	76.74
361.6	76.84
362.064	82.04
362.527	79.14
362.991	83.84
363.454	73.34
363.918	69.94
364.381	71.64
364.845	66.74
365.308	77.84
365.772	79.44
366.235	78.84
366.698	78.74
367.162	87.24
367.625	78.04
368.088	75.24
368.552	81.84
369.015	78.34
369.478	88.54
369.941	91.64
370.404	89.64
370.867	92.34
371.331	94.24
371.794	98.74
372.257	99.94
372.72	112.04
373.183	100.84
373.646	92.94
374.109	90.74
374.572	102.04
375.035	98.24
375.497	98.34
375.96	92.74
376.423	90.54
376.886	98.04
377.349	99.94
377.811	92.14
378.274	96.64
378.737	93.54
379.199	98.64
379.662	98.94
380.125	102.04
380.587	109.54
381.05	112.04
381.512	112.64
381.975	117.64
382.437	114.14
382.9	116.94
383.362	112.04
383.825	122.24
384.287	134.44
384.75	124.44
385.212	126.94
385.674	130.74
386.136	121.44
386.599	111.84
387.061	113.04
387.523	111.94
387.985	122.04
388.447	132.24
388.91	132.84
389.372	140.64
389.834	132.64
390.296	136.04
390.758	139.94
391.22	150.34
391.682	182.04
392.144	254.44
392.606	196.64
393.068	147.94
393.529	147.64
393.991	137.74
394.453	131.64
394.915	140.04
395.377	168.04
395.838	188.14
396.3	141.24
396.762	130.04
397.224	122.44
397.685	111.34
398.147	117.14
398.608	121.54
399.07	117.14
399.531	125.34
399.993	130.74
400.454	137.04
400.916	136.04
401.377	128.94
401.839	134.64
402.3	141.64
402.762	155.54
403.223	152.64
403.684	152.24
404.145	142.74
404.607	148.14
405.068	151.44
405.529	148.54
405.99	169.14
406.451	150.54
406.913	156.24
407.374	149.54
407.835	146.74
408.296	152.34
408.757	151.74
409.218	158.74
409.679	162.14
410.14	156.54
410.601	162.64
411.062	171.84
411.522	171.74
411.983	169.04
412.444	159.54
412.905	161.14
413.366	167.94
413.826	175.74
414.287	201.84
414.748	242.94
415.208	224.14
415.669	193.14
416.13	190.14
416.59	181.94
417.051	190.64
417.511	196.84
417.972	219.64
418.432	224.84
418.893	261.44
419.353	228.04
419.814	182.04
420.274	166.24
420.734	161.94
421.195	180.14
421.655	181.74
422.115	170.54
422.576	177.14
423.036	180.14
423.496	184.54
423.956	197.14
424.416	209.74
424.876	240.14
425.336	242.44
425.797	232.74
426.257	232.44
426.717	217.44
427.177	207.34
427.637	200.14
428.097	214.44
428.556	218.74
429.016	241.34
429.476	239.84
429.936	245.84
430.396	246.44
430.856	262.04
431.315	283.94
431.775	302.34
432.235	345.04
432.694	311.64
433.154	316.14
433.614	331.14
434.073	296.54
434.533	255.14
434.993	239.34
435.452	247.34
435.912	257.34
436.371	261.64
436.83	243.04
437.29	233.64
437.749	214.14
438.209	210.94
438.668	236.64
439.127	246.04
439.587	235.94
440.046	223.14
440.505	232.64
440.964	242.14
441.424	269.04
441.883	265.14
442.342	234.04
442.801	204.54
443.26	196.14
443.719	200.44
444.178	198.54
444.637	190.54
445.096	196.54
445.555	201.44
446.014	203.74
446.473	204.64
446.932	205.44
447.391	202.04
447.849	203.24
448.308	191.74
448.767	204.64
449.226	211.54
449.685	216.54
450.143	223.54
450.602	221.74
451.061	206.64
451.519	208.14
451.978	212.44
452.436	212.74
452.895	218.44
453.353	226.94
453.812	218.44
454.27	214.64
454.729	215.54
455.187	212.14
455.646	215.34
456.104	214.14
456.562	231.94
457.021	228.64
457.479	231.54
457.937	240.44
458.395	232.14
458.854	214.24
459.312	228.64
459.77	237.14
460.228	228.94
460.686	219.54
461.144	220.54
461.602	215.94
462.06	221.44
462.518	228.04
462.976	228.24
463.434	229.64
463.892	233.24
464.35	245.14
464.808	260.94
465.266	250.44
465.724	252.94
466.181	246.84
466.639	253.34
467.097	264.24
467.555	268.54
468.012	270.74
468.47	279.34
468.928	289.64
469.385	304.74
469.843	310.24
470.3	300.94
470.758	327.54
471.215	331.04
471.673	349.04
472.13	351.24
472.588	363.64
473.045	327.74
473.503	336.64
473.96	359.24
474.417	360.84
474.875	388.74
475.332	422.64
475.789	411.24
476.246	419.74
476.704	432.94
477.161	451.14
477.618	465.04
478.075	493.64
478.532	547.24
478.989	600.04
479.446	691.74
479.903	688.24
480.36	719.74
480.817	775.74
481.274	871.24
481.731	965.54
482.188	1053.34
482.645	1177.54
483.102	1259.34
483.558	1387.24
484.015	1453.14
484.472	1431.14
484.929	1385.34
485.385	1335.34
485.842	1312.34
486.299	1231.34
486.755	1159.24
487.212	976.24
487.668	831.04
488.125	769.54
488.582	706.74
489.038	671.14
489.494	640.04
489.951	621.64
490.407	595.74
490.864	588.34
491.32	568.84
491.776	572.84
492.233	576.34
492.689	546.24
493.145	533.34
493.602	529.24
494.058	546.14
494.514	552.14
494.97	567.14
495.426	571.24
495.882	554.84
496.338	546.84
496.794	558.74
497.251	555.74
497.707	572.24
498.163	563.54
498.618	571.04
499.074	582.64
499.53	599.04
499.986	602.74
500.442	580.44
500.898	561.94
501.354	558.34
501.809	562.84
502.265	571.84
502.721	591.04
503.177	589.34
503.632	595.14
504.088	597.64
504.543	629.74
504.999	621.64
505.455	590.84
505.91	570.84
506.366	562.34
506.821	557.04
507.277	556.44
507.732	558.74
508.187	561.44
508.643	567.64
509.098	572.94
509.553	580.84
510.009	591.64
510.464	593.24
510.919	611.74
511.375	623.14
511.83	628.94
512.285	648.64
512.74	666.44
513.195	694.04
513.65	689.94
514.105	688.54
514.56	690.84
515.015	705.14
515.47	729.54
515.925	703.04
516.38	713.54
516.835	711.54
517.29	706.14
517.745	702.64
518.2	674.14
518.655	678.44
519.109	668.94
519.564	664.04
520.019	650.34
520.474	649.04
520.928	645.44
521.383	643.04
521.838	630.64
522.292	618.74
522.747	634.34
523.201	621.54
523.656	617.74
524.11	611.84
524.565	613.44
525.019	612.44
525.474	623.04
525.928	615.44
526.382	619.94
526.837	620.64
527.291	618.24
527.745	614.24
528.2	622.94
528.654	612.94
529.108	614.54
529.562	606.44
530.016	612.14
530.47	616.54
530.925	612.14
531.379	618.44
531.833	628.94
532.287	621.74
532.741	615.54
533.195	613.44
533.649	627.34
534.103	631.34
534.556	619.24
535.01	629.54
535.464	634.04
535.918	639.44
536.372	631.24
536.826	639.74
537.279	622.74
537.733	630.74
538.187	623.14
538.64	633.74
539.094	639.44
539.548	644.14
540.001	638.74
540.455	637.14
540.908	639.34
541.362	645.24
541.815	663.64
542.269	680.94
542.722	670.14
543.175	685.74
543.629	683.54
544.082	691.34
544.536	694.14
544.989	681.64
545.442	697.34
545.895	691.34
546.349	688.94
546.802	691.64
547.255	696.54
547.708	698.64
548.161	715.44
548.614	714.54
549.067	735.24
549.52	718.04
549.973	715.54
550.426	705.74
550.879	690.64
551.332	699.94
551.785	701.04
552.238	705.54
552.691	708.54
553.144	716.74
553.596	734.74
554.049	744.64
554.502	785.94
554.955	794.64
555.407	792.94
555.86	783.94
556.313	780.34
556.765	763.74
557.218	770.34
557.67	768.34
558.123	773.84
558.576	752.44
559.028	766.24
559.48	760.64
559.933	755.84
560.385	729.94
560.838	697.04
561.29	679.44
561.742	678.84
562.195	667.34
562.647	660.44
563.099	668.04
563.551	673.04
564.004	680.94
564.456	660.34
564.908	653.64
565.36	651.34
565.812	637.24
566.264	630.54
566.716	625.14
567.168	609.54
567.62	618.64
568.072	606.24
568.524	597.24
568.976	582.94
569.428	572.04
569.88	577.84
570.332	594.24
570.784	582.14
571.235	584.84
571.687	589.64
572.139	599.74
572.59	618.14
573.042	617.24
573.494	613.04
573.945	598.54
574.397	583.74
574.849	591.14
575.3	598.54
575.752	586.04
576.203	582.04
576.655	581.64
577.106	575.54
577.557	560.44
578.009	566.24
578.46	558.34
578.912	569.94
579.363	557.34
579.814	570.74
580.265	563.74
580.717	569.74
581.168	568.84
581.619	576.94
582.07	580.94
582.521	572.24
582.972	574.64
583.423	565.84
583.875	580.84
584.326	582.24
584.777	637.14
585.227	696.44
585.678	770.54
586.129	861.94
586.58	925.54
587.031	1005.04
587.482	1147.24
587.933	1315.84
588.384	1138.14
588.834	839.04
589.285	685.64
589.736	667.04
590.186	649.94
590.637	645.74
591.088	613.54
591.538	623.74
591.989	607.54
592.439	604.94
592.89	610.44
593.34	598.34
593.791	596.04
594.241	588.64
594.692	597.84
595.142	584.84
595.593	580.64
596.043	596.94
596.493	599.64
596.943	601.14
597.394	602.44
597.844	591.04
598.294	604.44
598.744	633.94
599.195	644.54
599.645	686.54
600.095	714.14
600.545	767.04
600.995	805.74
601.445	856.44
601.895	903.84
602.345	957.04
602.795	927.34
603.245	893.04
603.695	841.94
604.145	797.84
604.594	762.24
605.044	722.64
605.494	664.94
605.944	630.74
606.393	619.44
606.843	610.14
607.293	604.24
607.743	604.44
608.192	618.04
608.642	626.24
609.091	627.44
609.541	633.54
609.99	630.54
610.44	636.14
610.889	595.34
611.339	579.54
611.788	560.84
612.238	570.34
612.687	594.04
613.136	588.34
613.586	603.54
614.035	602.14
614.484	624.14
614.933	621.04
615.383	614.44
615.832	613.74
616.281	600.44
616.73	571.04
617.179	548.74
617.628	536.44
618.077	514.64
618.526	519.34
618.975	510.24
619.424	508.94
619.873	502.34
620.322	507.14
620.771	497.54
621.22	502.04
621.669	490.74
622.118	482.94
622.567	474.74
623.015	466.64
623.464	477.04
623.913	465.54
624.361	448.44
624.81	453.94
625.259	454.94
625.707	458.24
626.156	452.44
626.604	457.84
627.053	462.64
627.501	461.34
627.95	469.84
628.398	476.94
628.847	460.54
629.295	472.04
629.744	477.04
630.192	466.74
630.64	467.84
631.089	458.44
631.537	467.04
631.985	469.74
632.433	477.54
632.881	491.34
633.33	522.74
633.778	503.04
634.226	446.74
634.674	458.34
635.122	474.14
635.57	476.84
636.018	511.64
636.466	465.24
636.914	454.54
637.362	464.54
637.81	467.84
638.258	472.74
638.705	468.84
639.153	484.84
639.601	503.44
640.049	515.14
640.497	549.04
640.944	559.84
641.392	516.44
641.84	495.14
642.287	469.94
642.735	461.74
643.182	455.34
643.63	470.64
644.078	461.14
644.525	476.24
644.973	476.84
645.42	487.04
645.867	501.34
646.315	510.64
646.762	531.04
647.21	556.94
647.657	572.74
648.104	599.84
648.551	616.34
648.999	668.44
649.446	732.64
649.893	801.44
650.34	918.64
650.787	1105.84
651.234	1369.84
651.682	1764.54
652.129	2395.94
652.576	3470.94
653.023	5148.24
653.47	7148.44
653.917	9037.14
654.363	10650.34
654.81	12024.84
655.257	11417.04
655.704	7397.44
656.151	4318.84
656.598	2788.64
657.044	1981.54
657.491	1509.54
657.938	1209.14
658.385	1010.24
658.831	872.84
659.278	781.94
659.724	690.14
660.171	632.84
660.618	581.64
661.064	547.34
661.511	525.54
661.957	508.94
662.404	511.44
662.85	510.64
663.296	488.84
663.743	445.04
664.189	425.84
664.635	430.14
665.082	424.84
665.528	423.14
665.974	415.14
666.42	404.54
666.867	403.34
667.313	381.34
667.759	380.34
668.205	379.74
668.651	393.54
669.097	389.84
669.543	401.04
669.989	379.14
670.435	353.84
670.881	350.84
671.327	356.44
671.773	372.84
672.219	387.84
672.665	434.94
673.11	457.54
673.556	499.14
674.002	528.94
674.448	526.74
674.893	437.84
675.339	381.14
675.785	349.54
676.23	336.44
676.676	314.64
677.122	301.84
677.567	296.54
678.013	289.64
678.458	281.84
678.904	283.04
679.349	276.94
679.794	282.34
680.24	282.24
680.685	285.54
681.131	269.14
681.576	277.14
682.021	279.44
682.466	278.44
682.912	267.44
683.357	271.14
683.802	299.44
684.247	321.44
684.692	360.54
685.137	392.54
685.583	438.54
686.028	444.14
686.473	413.24
686.918	355.64
687.363	331.74
687.807	305.34
688.252	291.54
688.697	289.64
689.142	270.94
689.587	259.74
690.032	255.24
690.477	274.84
690.921	274.44
691.366	303.34
691.811	317.14
692.255	338.84
692.7	369.74
693.145	383.84
693.589	530.54
694.034	861.34
694.478	1190.54
694.923	1397.64
695.367	1862.04
695.812	961.74
696.256	397.14
696.701	296.74
697.145	266.14
697.59	255.84
698.034	257.84
698.478	260.84
698.922	253.14
699.367	262.94
699.811	266.84
700.255	284.04
700.699	305.74
701.143	329.04
701.588	378.74
702.032	409.34
702.476	406.14
702.92	387.94
703.364	385.14
703.808	483.64
704.252	790.04
704.696	1131.34
705.14	1353.84
705.584	1745.64
706.027	857.74
706.471	419.14
706.915	308.84
707.359	278.54
707.803	252.74
708.246	241.04
708.69	249.64
709.134	249.34
709.577	245.64
710.021	263.04
710.465	244.84
710.908	236.24
711.352	236.74
711.795	244.24
712.239	268.34
712.682	307.54
713.126	324.34
713.569	370.04
714.012	297.04
714.456	263.84
714.899	242.74
715.342	210.24
715.786	205.24
716.229	196.94
716.672	205.64
717.115	196.74
717.558	202.94
718.002	196.14
718.445	209.44
718.888	222.94
719.331	235.74
719.774	242.54
720.217	243.34
720.66	218.04
721.103	211.44
721.546	199.24
721.989	194.24
722.432	184.34
722.874	192.14
723.317	181.14
723.76	193.14
724.203	206.34
724.645	245.64
725.088	331.54
725.531	443.54
725.974	519.34
726.416	429.44
726.859	238.84
727.301	197.14
727.744	187.74
728.187	188.64
728.629	189.84
729.071	199.64
729.514	207.94
729.956	213.04
730.399	221.64
730.841	223.04
731.283	212.84
731.726	206.04
732.168	205.34
732.61	210.74
733.053	226.44
733.495	242.54
733.937	277.74
734.379	310.04
734.821	335.44
735.263	415.54
735.705	631.94
736.148	1213.74
736.59	2007.74
737.032	2502.64
737.474	2038.34
737.916	647.34
738.357	331.14
738.799	250.24
739.241	233.14
739.683	220.34
740.125	231.24
740.567	237.64
741.008	251.74
741.45	245.34
741.892	249.84
742.334	274.44
742.775	285.24
743.217	271.64
743.658	213.94
744.1	200.94
744.542	211.64
744.983	248.14
745.425	269.44
745.866	278.64
746.307	227.44
746.749	219.24
747.19	245.04
747.632	344.74
748.073	651.74
748.514	1417.54
748.956	2245.14
749.397	2806.94
749.838	2350.04
750.279	2428.64
750.72	1214.24
751.162	434.14
751.603	255.14
752.044	198.34
752.485	165.74
752.926	167.34
753.367	158.34
753.808	154.94
754.249	145.54
754.69	149.84
755.131	145.34
755.572	139.34
756.013	135.14
756.453	144.14
756.894	139.04
757.335	145.44
757.776	157.04
758.216	152.44
758.657	159.64
759.098	153.64
759.538	173.74
759.979	208.74
760.42	275.24
760.86	526.44
761.301	1378.74
761.741	3440.84
762.182	5344.94
762.622	3751.24
763.063	1058.84
763.503	431.74
