Data from 20171114-ORNL-Ar_H_NY_Subt18_08-04-00-151.txt Node
Date: Tue Nov 14 08:04:00 EST 2017
User: Ender
Spectrometer: HR+D1039
Trigger mode: 0
Integration Time (sec): 2.730000E-2
Scans to average: 10
Electric dark correction enabled: true
Nonlinearity correction enabled: false
Boxcar width: 0
XAxis mode: Wavelengths
Number of Pixels in Spectrum: 2048
>>>>>Begin Spectral Data<<<<<
187.836	-9.61
188.309	-9.61
188.782	-9.61
189.255	5.09
189.728	-4.91
190.201	3.59
190.674	5.99
191.147	0.59
191.619	-7.91
192.092	5.99
192.565	5.29
193.038	0.79
193.511	2.19
193.984	2.49
194.456	-3.51
194.929	-0.01
195.402	-3.41
195.874	-2.71
196.347	-5.61
196.82	-7.01
197.292	6.09
197.765	-1.51
198.237	-2.01
198.71	4.39
199.182	-2.81
199.655	4.79
200.127	1.99
200.6	-7.71
201.072	-3.31
201.544	-3.71
202.017	-1.81
202.489	2.49
202.961	-0.61
203.433	-2.51
203.906	-4.91
204.378	-8.21
204.85	-5.11
205.322	-11.71
205.794	-3.31
206.266	-4.71
206.739	-6.31
207.211	4.99
207.683	-8.01
208.155	-0.71
208.627	-9.31
209.099	0.39
209.57	-8.51
210.042	-5.21
210.514	-0.51
210.986	-9.21
211.458	-9.51
211.93	2.19
212.402	6.09
212.873	-5.31
213.345	-9.01
213.817	-11.41
214.288	-8.91
214.76	-14.91
215.232	-0.81
215.703	-6.21
216.175	-3.11
216.646	-2.41
217.118	-11.21
217.589	-2.81
218.061	-1.91
218.532	-1.21
219.004	-3.51
219.475	-8.01
219.946	-7.01
220.418	-7.31
220.889	2.09
221.36	-4.71
221.832	-5.01
222.303	-9.01
222.774	3.19
223.245	-8.51
223.717	-2.41
224.188	0.79
224.659	-3.71
225.13	-4.21
225.601	0.99
226.072	2.09
226.543	-0.51
227.014	-4.11
227.485	-4.21
227.956	-3.51
228.427	-3.51
228.898	-5.01
229.369	6.49
229.839	-5.01
230.31	-3.61
230.781	-0.21
231.252	-3.41
231.722	-2.51
232.193	-3.21
232.664	-3.61
233.135	-3.21
233.605	-0.21
234.076	-5.91
234.546	1.59
235.017	4.19
235.487	2.19
235.958	-5.31
236.428	-6.41
236.899	1.99
237.369	-2.01
237.84	-7.31
238.31	0.39
238.78	3.99
239.251	-6.01
239.721	-3.61
240.191	-0.21
240.662	-5.41
241.132	-3.21
241.602	-2.31
242.072	0.79
242.542	6.49
243.013	-1.91
243.483	-0.71
243.953	1.49
244.423	-3.71
244.893	-7.31
245.363	2.49
245.833	-4.51
246.303	-0.31
246.773	2.59
247.243	-1.81
247.712	-3.91
248.182	8.39
248.652	7.49
249.122	-0.71
249.592	5.69
250.061	10.49
250.531	15.99
251.001	6.49
251.471	12.99
251.94	14.39
252.41	1.39
252.879	-8.21
253.349	4.89
253.818	8.89
254.288	-1.51
254.757	-1.41
255.227	-1.71
255.696	1.89
256.166	-1.11
256.635	1.39
257.105	0.09
257.574	0.79
258.043	-1.41
258.513	-0.11
258.982	6.19
259.451	0.09
259.92	-0.11
260.389	0.59
260.859	13.29
261.328	1.49
261.797	3.69
262.266	5.29
262.735	6.79
263.204	1.79
263.673	-1.31
264.142	-2.21
264.611	-4.91
265.08	-5.91
265.549	-8.11
266.018	-3.91
266.487	-4.21
266.955	-4.41
267.424	0.79
267.893	5.39
268.362	1.19
268.83	2.49
269.299	8.49
269.768	6.09
270.236	1.69
270.705	-0.51
271.174	3.29
271.642	2.29
272.111	4.99
272.579	3.39
273.048	4.79
273.516	5.59
273.985	11.49
274.453	11.29
274.922	11.19
275.39	2.59
275.858	0.29
276.327	8.69
276.795	12.09
277.263	-0.71
277.731	18.89
278.2	25.89
278.668	25.79
279.136	23.29
279.604	2.59
280.072	5.99
280.54	2.69
281.008	3.69
281.477	11.49
281.945	13.59
282.413	4.79
282.881	8.19
283.348	3.69
283.816	8.29
284.284	7.29
284.752	15.49
285.22	9.09
285.688	3.79
286.156	8.99
286.623	23.39
287.091	26.09
287.559	16.69
288.026	13.49
288.494	13.29
288.962	4.59
289.429	3.99
289.897	8.29
290.364	8.09
290.832	14.49
291.3	4.59
291.767	11.19
292.234	9.99
292.702	1.29
293.169	9.49
293.637	13.69
294.104	10.89
294.571	2.49
295.039	3.39
295.506	7.49
295.973	13.49
296.44	4.09
296.908	6.19
297.375	6.29
297.842	12.09
298.309	8.69
298.776	7.79
299.243	19.79
299.71	9.19
300.177	16.29
300.644	10.79
301.111	9.99
301.578	14.79
302.045	9.19
302.512	12.79
302.979	17.29
303.446	17.69
303.913	12.89
304.379	9.79
304.846	21.69
305.313	21.19
305.78	17.39
306.246	20.99
306.713	15.79
307.18	15.49
307.646	21.99
308.113	19.79
308.579	14.69
309.046	15.09
309.512	19.09
309.979	13.59
310.445	22.49
310.912	17.99
311.378	23.49
311.845	18.49
312.311	24.59
312.777	26.49
313.244	19.59
313.71	23.29
314.176	20.39
314.642	16.49
315.109	20.39
315.575	21.59
316.041	23.59
316.507	22.49
316.973	23.69
317.439	19.79
317.905	23.89
318.371	19.39
318.837	20.49
319.303	25.09
319.769	17.99
320.235	25.49
320.701	23.09
321.167	25.49
321.633	23.19
322.099	28.89
322.564	37.49
323.03	30.29
323.496	23.29
323.962	30.89
324.427	26.29
324.893	30.89
325.359	24.89
325.824	33.19
326.29	24.79
326.755	27.19
327.221	26.99
327.686	31.69
328.152	33.59
328.617	32.89
329.083	31.49
329.548	37.19
330.014	34.49
330.479	32.09
330.944	34.19
331.41	33.59
331.875	39.19
332.34	31.89
332.805	27.09
333.271	34.19
333.736	24.69
334.201	42.29
334.666	39.89
335.131	46.79
335.596	44.59
336.061	41.69
336.526	25.09
336.991	35.89
337.456	49.39
337.921	37.99
338.386	35.49
338.851	34.99
339.316	34.99
339.781	34.59
340.246	44.59
340.711	37.89
341.175	41.09
341.64	33.79
342.105	39.49
342.569	44.79
343.034	45.09
343.499	47.39
343.963	38.49
344.428	51.59
344.893	45.59
345.357	47.09
345.822	44.59
346.286	53.69
346.751	57.19
347.215	52.29
347.679	53.89
348.144	77.99
348.608	66.49
349.073	52.79
349.537	58.99
350.001	59.09
350.465	69.99
350.93	61.49
351.394	66.69
351.858	56.69
352.322	72.69
352.786	63.09
353.25	74.49
353.715	76.69
354.179	71.99
354.643	89.69
355.107	86.79
355.571	79.99
356.035	80.69
356.498	89.39
356.962	85.29
357.426	100.39
357.89	86.39
358.354	69.99
358.818	67.89
359.281	62.79
359.745	60.19
360.209	58.89
360.673	58.69
361.136	69.29
361.6	68.39
362.064	65.39
362.527	63.99
362.991	78.79
363.454	71.19
363.918	62.59
364.381	63.49
364.845	73.09
365.308	81.49
365.772	76.79
366.235	66.09
366.698	58.89
367.162	68.19
367.625	70.49
368.088	72.19
368.552	67.19
369.015	74.39
369.478	81.09
369.941	84.79
370.404	77.19
370.867	89.39
371.331	93.39
371.794	95.09
372.257	91.69
372.72	94.59
373.183	86.79
373.646	88.29
374.109	84.69
374.572	87.69
375.035	85.59
375.497	87.49
375.96	91.79
376.423	88.79
376.886	96.79
377.349	89.29
377.811	91.09
378.274	92.79
378.737	84.69
379.199	94.79
379.662	96.29
380.125	96.49
380.587	100.39
381.05	101.39
381.512	105.49
381.975	111.59
382.437	113.59
382.9	105.59
383.362	117.29
383.825	115.19
384.287	116.59
384.75	121.79
385.212	122.29
385.674	119.09
386.136	117.59
386.599	108.89
387.061	111.49
387.523	110.39
387.985	118.79
388.447	122.19
388.91	122.59
389.372	132.49
389.834	129.19
390.296	121.99
390.758	130.69
391.22	135.69
391.682	164.79
392.144	216.59
392.606	180.89
393.068	133.49
393.529	143.39
393.991	139.49
394.453	123.59
394.915	126.69
395.377	151.59
395.838	164.99
396.3	132.69
396.762	126.39
397.224	118.19
397.685	124.39
398.147	118.99
398.608	122.79
399.07	110.69
399.531	119.89
399.993	128.59
400.454	132.79
400.916	130.49
401.377	133.19
401.839	133.79
402.3	137.69
402.762	143.49
403.223	156.39
403.684	153.19
404.145	144.59
404.607	146.49
405.068	142.59
405.529	140.39
405.99	155.39
406.451	151.49
406.913	157.49
407.374	146.49
407.835	149.39
408.296	153.39
408.757	160.69
409.218	167.89
409.679	165.69
410.14	159.79
410.601	158.69
411.062	165.69
411.522	165.69
411.983	157.29
412.444	163.79
412.905	163.89
413.366	164.79
413.826	174.69
414.287	193.39
414.748	242.19
415.208	230.69
415.669	192.69
416.13	184.69
416.59	187.99
417.051	192.79
417.511	209.19
417.972	223.49
418.432	232.19
418.893	273.99
419.353	230.39
419.814	179.39
420.274	166.19
420.734	170.49
421.195	179.89
421.655	168.99
422.115	177.49
422.576	179.19
423.036	183.29
423.496	192.29
423.956	197.29
424.416	211.89
424.876	241.99
425.336	231.29
425.797	236.89
426.257	229.59
426.717	213.99
427.177	211.29
427.637	204.39
428.097	211.39
428.556	221.29
429.016	242.79
429.476	236.09
429.936	238.69
430.396	241.69
430.856	261.49
431.315	279.49
431.775	307.09
432.235	338.69
432.694	312.09
433.154	317.09
433.614	326.09
434.073	286.29
434.533	253.79
434.993	242.49
435.452	241.69
435.912	255.69
436.371	247.49
436.83	245.89
437.29	233.09
437.749	222.19
438.209	221.29
438.668	229.09
439.127	243.89
439.587	228.29
440.046	210.79
440.505	230.09
440.964	238.19
441.424	267.59
441.883	260.19
442.342	223.09
442.801	199.59
443.26	197.39
443.719	202.49
444.178	199.19
444.637	190.59
445.096	202.29
445.555	201.39
446.014	199.09
446.473	204.09
446.932	209.19
447.391	204.39
447.849	205.99
448.308	204.09
448.767	198.79
449.226	205.69
449.685	214.69
450.143	227.99
450.602	221.09
451.061	211.19
451.519	214.99
451.978	210.79
452.436	210.39
452.895	207.29
453.353	224.09
453.812	219.29
454.27	215.09
454.729	217.19
455.187	210.59
455.646	218.79
456.104	214.19
456.562	226.89
457.021	233.99
457.479	231.39
457.937	237.99
458.395	234.59
458.854	227.99
459.312	223.09
459.77	233.19
460.228	229.59
460.686	215.99
461.144	228.89
461.602	219.79
462.06	215.69
462.518	227.79
462.976	229.49
463.434	231.49
463.892	237.09
464.35	246.89
464.808	255.49
465.266	245.59
465.724	246.89
466.181	246.59
466.639	250.59
467.097	255.79
467.555	262.29
468.012	275.89
468.47	269.89
468.928	290.99
469.385	301.59
469.843	306.39
470.3	296.89
470.758	313.49
471.215	327.79
471.673	342.79
472.13	348.49
472.588	354.69
473.045	321.39
473.503	334.69
473.96	349.79
474.417	351.39
474.875	388.99
475.332	409.09
475.789	398.89
476.246	407.89
476.704	422.49
477.161	446.39
477.618	457.99
478.075	486.69
478.532	527.69
478.989	584.19
479.446	667.09
479.903	657.09
480.36	708.69
480.817	747.19
481.274	851.39
481.731	925.69
482.188	993.39
482.645	1125.59
483.102	1211.09
483.558	1319.09
484.015	1399.69
484.472	1383.19
484.929	1315.49
485.385	1276.99
485.842	1234.39
486.299	1183.09
486.755	1105.39
487.212	953.39
487.668	811.89
488.125	758.19
488.582	696.19
489.038	667.99
489.494	632.29
489.951	597.39
490.407	583.89
490.864	574.19
491.32	568.89
491.776	552.49
492.233	562.59
492.689	530.49
493.145	523.99
493.602	520.89
494.058	528.89
494.514	535.39
494.97	549.89
495.426	543.59
495.882	530.09
496.338	531.39
496.794	542.19
497.251	534.09
497.707	546.59
498.163	549.09
498.618	552.49
499.074	549.99
499.53	569.69
499.986	570.69
500.442	554.59
500.898	539.29
501.354	549.49
501.809	548.29
502.265	548.39
502.721	558.89
503.177	565.89
503.632	570.19
504.088	569.09
504.543	599.89
504.999	594.99
505.455	559.99
505.91	547.19
506.366	551.49
506.821	545.79
507.277	544.99
507.732	543.69
508.187	542.69
508.643	554.79
509.098	553.99
509.553	575.19
510.009	571.59
510.464	575.49
510.919	597.19
511.375	595.39
511.83	603.29
512.285	619.19
512.74	647.19
513.195	665.89
513.65	649.89
514.105	656.49
514.56	659.49
515.015	670.49
515.47	695.39
515.925	676.29
516.38	678.19
516.835	682.19
517.29	671.29
517.745	675.39
518.2	656.39
518.655	644.29
519.109	636.99
519.564	630.39
520.019	625.69
520.474	611.89
520.928	624.89
521.383	612.09
521.838	603.49
522.292	602.19
522.747	599.19
523.201	598.59
523.656	595.39
524.11	596.39
524.565	589.49
525.019	596.09
525.474	603.59
525.928	598.49
526.382	592.29
526.837	585.89
527.291	595.59
527.745	587.49
528.2	592.19
528.654	581.49
529.108	576.79
529.562	578.99
530.016	587.29
530.47	573.89
530.925	580.49
531.379	583.39
531.833	585.19
532.287	581.29
532.741	589.39
533.195	594.39
533.649	588.19
534.103	593.19
534.556	587.99
535.01	587.39
535.464	588.69
535.918	594.69
536.372	600.09
536.826	596.39
537.279	575.59
537.733	599.19
538.187	597.09
538.64	590.89
539.094	601.09
539.548	609.89
540.001	594.89
540.455	592.99
540.908	608.09
541.362	612.59
541.815	618.79
542.269	627.79
542.722	626.49
543.175	646.89
543.629	641.59
544.082	654.09
544.536	665.29
544.989	662.99
545.442	661.09
545.895	653.69
546.349	651.69
546.802	655.59
547.255	653.69
547.708	669.19
548.161	685.89
548.614	675.89
549.067	688.99
549.52	677.29
549.973	668.59
550.426	667.79
550.879	647.69
551.332	665.59
551.785	646.39
552.238	662.39
552.691	680.49
553.144	683.59
553.596	688.09
554.049	705.19
554.502	729.49
554.955	735.29
555.407	740.89
555.86	728.49
556.313	727.09
556.765	715.49
557.218	717.19
557.67	711.99
558.123	710.69
558.576	701.99
559.028	717.59
559.48	714.99
559.933	708.39
560.385	686.09
560.838	654.79
561.29	631.09
561.742	641.89
562.195	621.09
562.647	619.69
563.099	635.39
563.551	627.99
564.004	633.89
564.456	633.09
564.908	607.59
565.36	596.29
565.812	586.09
566.264	568.69
566.716	584.09
567.168	561.49
567.62	565.09
568.072	560.49
568.524	566.39
568.976	538.19
569.428	533.99
569.88	531.89
570.332	545.09
570.784	540.89
571.235	542.09
571.687	545.89
572.139	560.49
572.59	563.39
573.042	562.59
573.494	557.59
573.945	555.29
574.397	535.39
574.849	540.79
575.3	546.39
575.752	537.29
576.203	532.89
576.655	536.19
577.106	523.69
577.557	518.99
578.009	526.59
578.46	524.09
578.912	522.19
579.363	513.39
579.814	527.89
580.265	515.99
580.717	516.59
581.168	519.49
581.619	528.59
582.07	533.89
582.521	523.39
582.972	521.99
583.423	527.09
583.875	530.39
584.326	535.29
584.777	568.19
585.227	618.59
585.678	680.49
586.129	727.59
586.58	776.69
587.031	835.59
587.482	935.19
587.933	1067.59
588.384	942.79
588.834	723.39
589.285	622.09
589.736	605.09
590.186	597.09
590.637	608.49
591.088	582.09
591.538	572.59
591.989	562.09
592.439	556.19
592.89	556.49
593.34	539.59
593.791	544.79
594.241	540.09
594.692	537.89
595.142	531.69
595.593	533.49
596.043	533.99
596.493	538.29
596.943	540.39
597.394	557.49
597.844	548.99
598.294	555.89
598.744	577.99
599.195	585.49
599.645	619.29
600.095	652.49
600.545	695.09
600.995	728.69
601.445	787.69
601.895	826.29
602.345	861.39
602.795	852.59
603.245	816.29
603.695	770.69
604.145	731.29
604.594	686.89
605.044	650.89
605.494	610.39
605.944	564.99
606.393	564.39
606.843	546.99
607.293	558.09
607.743	542.99
608.192	560.29
608.642	568.49
609.091	570.59
609.541	574.29
609.99	572.99
610.44	574.19
610.889	533.49
611.339	521.69
611.788	509.59
612.238	514.29
612.687	532.89
613.136	532.59
613.586	551.39
614.035	538.59
614.484	552.89
614.933	563.99
615.383	552.79
615.832	540.19
616.281	528.09
616.73	509.79
617.179	493.39
617.628	486.39
618.077	472.09
618.526	459.99
618.975	462.49
619.424	459.49
619.873	454.49
620.322	459.39
620.771	454.69
621.22	448.59
621.669	439.59
622.118	432.89
622.567	421.29
623.015	415.89
623.464	418.69
623.913	419.59
624.361	412.49
624.81	400.89
625.259	405.59
625.707	413.39
626.156	414.09
626.604	417.99
627.053	424.09
627.501	411.49
627.95	422.19
628.398	423.99
628.847	423.19
629.295	409.89
629.744	421.89
630.192	421.99
630.64	412.99
631.089	397.59
631.537	402.99
631.985	406.49
632.433	414.89
632.881	413.59
633.33	437.49
633.778	426.39
634.226	398.99
634.674	401.19
635.122	409.49
635.57	422.39
636.018	429.19
636.466	421.69
636.914	408.49
637.362	411.99
637.81	424.89
638.258	428.59
638.705	421.79
639.153	446.39
639.601	450.29
640.049	468.19
640.497	492.29
640.944	513.19
641.392	465.39
641.84	450.99
642.287	423.29
642.735	407.59
643.182	419.19
643.63	418.79
644.078	408.99
644.525	421.99
644.973	427.49
645.42	434.59
645.867	443.59
646.315	454.29
646.762	475.59
647.21	503.09
647.657	507.29
648.104	540.49
648.551	546.39
648.999	602.49
649.446	646.79
649.893	719.59
650.34	812.19
650.787	974.79
651.234	1196.79
651.682	1544.69
652.129	2111.39
652.576	3000.99
653.023	4458.89
653.47	6188.09
653.917	7809.39
654.363	9250.19
654.81	10432.79
655.257	9936.39
655.704	6488.69
656.151	3794.69
656.598	2448.09
657.044	1733.39
657.491	1332.89
657.938	1067.09
658.385	884.59
658.831	767.79
659.278	693.39
659.724	616.59
660.171	571.09
660.618	513.29
661.064	489.09
661.511	460.69
661.957	448.89
662.404	442.19
662.85	447.99
663.296	429.89
663.743	388.99
664.189	383.09
664.635	379.99
665.082	377.29
665.528	363.79
665.974	376.39
666.42	365.59
666.867	349.69
667.313	347.19
667.759	336.39
668.205	342.99
668.651	334.89
669.097	338.19
669.543	337.19
669.989	325.89
670.435	315.79
670.881	315.19
671.327	320.09
671.773	339.19
672.219	355.79
672.665	388.59
673.11	415.79
673.556	455.89
674.002	482.59
674.448	476.39
674.893	402.39
675.339	336.39
675.785	311.19
676.23	297.09
676.676	277.39
677.122	272.49
677.567	264.89
678.013	261.29
678.458	254.29
678.904	259.39
679.349	243.69
679.794	259.09
680.24	255.89
680.685	240.89
681.131	248.99
681.576	246.69
682.021	254.49
682.466	248.99
682.912	250.69
683.357	251.89
683.802	273.59
684.247	282.79
684.692	312.59
685.137	344.89
685.583	377.19
686.028	406.39
686.473	380.69
686.918	319.99
687.363	295.59
687.807	273.49
688.252	262.89
688.697	252.89
689.142	239.39
689.587	233.89
690.032	229.19
690.477	235.89
690.921	229.19
691.366	266.89
691.811	285.39
692.255	295.99
692.7	322.99
693.145	349.59
693.589	474.39
694.034	772.69
694.478	1085.39
694.923	1269.59
695.367	1690.29
695.812	877.09
696.256	363.69
696.701	266.09
697.145	235.99
697.59	233.99
698.034	226.49
698.478	229.99
698.922	230.49
699.367	227.19
699.811	235.49
700.255	243.99
700.699	266.89
701.143	300.69
701.588	333.89
702.032	368.29
702.476	364.89
702.92	346.79
703.364	337.09
703.808	427.69
704.252	714.99
704.696	1014.79
705.14	1214.49
705.584	1589.09
706.027	771.29
706.471	364.89
706.915	279.19
707.359	245.99
707.803	226.39
708.246	212.89
708.69	213.69
709.134	222.89
709.577	219.59
710.021	226.09
710.465	211.79
710.908	212.99
711.352	206.69
711.795	219.09
712.239	245.09
712.682	262.19
713.126	288.69
713.569	326.89
714.012	262.29
714.456	223.69
714.899	210.89
715.342	190.99
715.786	182.59
716.229	180.69
716.672	181.09
717.115	171.19
717.558	177.79
718.002	174.79
718.445	179.79
718.888	199.29
719.331	206.39
719.774	218.99
720.217	211.29
720.66	198.59
721.103	183.39
721.546	180.09
721.989	177.69
722.432	154.79
722.874	165.59
723.317	160.99
723.76	162.99
724.203	175.09
724.645	220.79
725.088	302.09
725.531	392.89
725.974	462.19
726.416	402.89
726.859	212.69
727.301	165.39
727.744	171.49
728.187	167.39
728.629	159.59
729.071	172.39
729.514	180.89
729.956	193.89
730.399	201.49
730.841	204.79
731.283	188.09
731.726	183.99
732.168	174.79
732.61	187.09
733.053	204.09
733.495	211.89
733.937	239.09
734.379	279.39
734.821	301.99
735.263	370.19
735.705	569.39
736.148	1076.89
736.59	1813.69
737.032	2273.19
737.474	1859.39
737.916	582.19
738.357	299.99
738.799	230.59
739.241	211.09
739.683	193.39
740.125	197.39
740.567	200.39
741.008	222.89
741.45	226.89
741.892	227.09
742.334	248.69
742.775	261.99
743.217	246.89
743.658	185.09
744.1	174.39
744.542	174.59
744.983	225.69
745.425	259.19
745.866	253.39
746.307	199.39
746.749	196.99
747.19	223.09
747.632	301.69
748.073	586.89
748.514	1267.19
748.956	2040.49
749.397	2559.89
749.838	2136.99
750.279	2221.29
750.72	1111.09
751.162	394.19
751.603	222.59
752.044	179.89
752.485	150.19
752.926	149.49
753.367	138.09
753.808	136.79
754.249	132.09
754.69	128.79
755.131	132.19
755.572	128.19
756.013	128.79
756.453	129.39
756.894	128.99
757.335	132.19
757.776	133.09
758.216	137.49
758.657	147.69
759.098	139.99
759.538	154.69
759.979	187.39
760.42	256.69
760.86	476.59
761.301	1245.29
761.741	3134.59
762.182	4938.39
762.622	3470.39
763.063	964.59
763.503	385.69
763.943	238.39
764.384	224.99
