Data from 20171114-ORNL-Ar_H_NY_Subt18_08-03-31-216.txt Node
Date: Tue Nov 14 08:03:31 EST 2017
User: Ender
Spectrometer: HR+D1039
Trigger mode: 0
Integration Time (sec): 2.730000E-2
Scans to average: 10
Electric dark correction enabled: true
Nonlinearity correction enabled: false
Boxcar width: 0
XAxis mode: Wavelengths
Number of Pixels in Spectrum: 2048
>>>>>Begin Spectral Data<<<<<
187.836	-7.71
188.309	-7.71
188.782	-7.71
189.255	4.69
189.728	0.49
190.201	7.79
190.674	-0.51
191.147	1.99
191.619	-8.61
192.092	-1.41
192.565	-2.91
193.038	1.09
193.511	2.99
193.984	2.39
194.456	0.99
194.929	0.39
195.402	0.09
195.874	-1.81
196.347	-0.61
196.82	-6.81
197.292	8.59
197.765	-0.11
198.237	-5.11
198.71	2.59
199.182	-3.51
199.655	0.99
200.127	-1.71
200.6	-3.21
201.072	-5.31
201.544	-3.71
202.017	-2.01
202.489	4.49
202.961	-3.41
203.433	-1.51
203.906	-7.21
204.378	-10.21
204.85	-5.61
205.322	-10.41
205.794	-1.01
206.266	-2.11
206.739	-12.01
207.211	0.59
207.683	-3.81
208.155	-0.81
208.627	-1.01
209.099	-3.11
209.57	-6.21
210.042	-1.21
210.514	-3.61
210.986	-2.91
211.458	-12.31
211.93	-4.31
212.402	-1.31
212.873	-5.21
213.345	-10.51
213.817	-17.51
214.288	-4.51
214.76	-10.71
215.232	-4.51
215.703	-5.91
216.175	-4.01
216.646	-7.71
217.118	-6.61
217.589	-7.71
218.061	-5.81
218.532	-6.91
219.004	-5.41
219.475	-3.51
219.946	-2.21
220.418	-2.91
220.889	-0.81
221.36	0.29
221.832	-6.81
222.303	-7.21
222.774	-1.51
223.245	-11.11
223.717	-4.21
224.188	-8.41
224.659	-7.51
225.13	-2.31
225.601	-6.81
226.072	1.79
226.543	-2.21
227.014	-2.41
227.485	-3.41
227.956	-5.41
228.427	-5.01
228.898	-3.81
229.369	-7.61
229.839	-5.61
230.31	-12.61
230.781	-2.51
231.252	-6.61
231.722	-3.61
232.193	-4.91
232.664	-5.41
233.135	-0.51
233.605	-5.71
234.076	-9.11
234.546	2.19
235.017	4.19
235.487	-6.11
235.958	-1.61
236.428	-10.01
236.899	-7.21
237.369	1.19
237.84	-7.61
238.31	0.89
238.78	-9.21
239.251	-10.31
239.721	-2.51
240.191	-3.51
240.662	-8.61
241.132	-3.01
241.602	-2.81
242.072	-4.41
242.542	-4.01
243.013	-4.21
243.483	-4.41
243.953	1.89
244.423	-3.21
244.893	-10.11
245.363	-1.21
245.833	-3.31
246.303	-5.61
246.773	-0.61
247.243	-4.01
247.712	-1.41
248.182	-1.81
248.652	-3.41
249.122	-15.31
249.592	-3.71
250.061	-0.31
250.531	0.19
251.001	-8.31
251.471	-2.21
251.94	5.69
252.41	2.19
252.879	-8.21
253.349	5.09
253.818	0.49
254.288	-7.11
254.757	-1.41
255.227	-9.71
255.696	-10.01
256.166	-4.91
256.635	-1.01
257.105	-0.11
257.574	-4.11
258.043	-7.21
258.513	-4.51
258.982	-6.91
259.451	-11.21
259.92	-2.01
260.389	-5.31
260.859	2.59
261.328	0.69
261.797	-6.61
262.266	-11.51
262.735	5.89
263.204	-7.81
263.673	-4.31
264.142	-7.91
264.611	-11.91
265.08	-12.21
265.549	-11.01
266.018	-6.21
266.487	-5.81
266.955	-9.61
267.424	-11.31
267.893	-4.71
268.362	-8.91
268.83	-7.61
269.299	2.19
269.768	-7.01
270.236	-3.61
270.705	-7.81
271.174	-9.31
271.642	-7.91
272.111	-7.51
272.579	-5.61
273.048	-7.21
273.516	-8.61
273.985	-5.21
274.453	0.49
274.922	2.19
275.39	-6.21
275.858	-13.21
276.327	-1.51
276.795	-1.11
277.263	-9.71
277.731	-0.81
278.2	-8.41
278.668	-6.31
279.136	0.99
279.604	-5.41
280.072	-1.31
280.54	-0.51
281.008	-2.41
281.477	-2.01
281.945	-2.71
282.413	-3.41
282.881	-0.61
283.348	-12.61
283.816	0.19
284.284	-6.61
284.752	4.79
285.22	-2.11
285.688	-0.51
286.156	-4.91
286.623	0.49
287.091	-6.81
287.559	-0.31
288.026	1.49
288.494	-7.21
288.962	-10.81
289.429	0.69
289.897	0.49
290.364	-0.91
290.832	-2.21
291.3	-4.11
291.767	-4.01
292.234	-4.31
292.702	-3.71
293.169	-0.51
293.637	-0.71
294.104	1.59
294.571	-16.91
295.039	-3.81
295.506	-6.61
295.973	-0.41
296.44	-5.91
296.908	-6.51
297.375	-4.11
297.842	-6.41
298.309	-9.71
298.776	-7.21
299.243	-2.41
299.71	-6.01
300.177	0.79
300.644	-3.31
301.111	-6.51
301.578	0.09
302.045	-12.11
302.512	-1.81
302.979	-4.11
303.446	-4.81
303.913	-6.71
304.379	-6.91
304.846	4.29
305.313	-2.81
305.78	-9.81
306.246	-1.61
306.713	-0.11
307.18	-6.31
307.646	-10.01
308.113	-1.31
308.579	-10.21
309.046	-11.41
309.512	-2.21
309.979	-9.51
310.445	-6.61
310.912	-3.41
311.378	-4.01
311.845	-6.81
312.311	-2.11
312.777	-0.31
313.244	-1.41
313.71	5.29
314.176	-0.81
314.642	-8.31
315.109	-11.11
315.575	-1.91
316.041	7.39
316.507	-0.61
316.973	-2.61
317.439	0.19
317.905	-0.21
318.371	1.49
318.837	-1.11
319.303	-7.41
319.769	-4.31
320.235	-4.61
320.701	-5.51
321.167	-7.61
321.633	-10.51
322.099	-5.91
322.564	-1.91
323.03	-1.21
323.496	-4.31
323.962	-0.01
324.427	-5.31
324.893	8.19
325.359	-3.81
325.824	-6.91
326.29	-12.31
326.755	-6.71
327.221	-2.01
327.686	-5.01
328.152	-4.01
328.617	-1.11
329.083	1.89
329.548	4.49
330.014	0.19
330.479	-8.41
330.944	-4.61
331.41	-4.21
331.875	2.79
332.34	-3.21
332.805	-4.11
333.271	-3.91
333.736	-11.61
334.201	1.39
334.666	-0.41
335.131	-0.71
335.596	2.29
336.061	-6.71
336.526	-12.01
336.991	-3.91
337.456	5.89
337.921	-1.91
338.386	-4.11
338.851	-0.01
339.316	-5.81
339.781	-4.41
340.246	3.99
340.711	-0.61
341.175	-1.31
341.64	-15.21
342.105	-1.71
342.569	-3.31
343.034	5.69
343.499	-4.81
343.963	-2.21
344.428	-3.21
344.893	-5.31
345.357	1.49
345.822	-1.31
346.286	-0.81
346.751	-2.51
347.215	1.69
347.679	-8.51
348.144	3.39
348.608	3.79
349.073	-3.81
349.537	-4.01
350.001	-5.21
350.465	-1.31
350.93	-5.51
351.394	-0.21
351.858	-14.31
352.322	5.19
352.786	-11.01
353.25	2.59
353.715	0.79
354.179	5.59
354.643	0.19
355.107	5.49
355.571	6.19
356.035	-1.21
356.498	0.89
356.962	-3.11
357.426	-1.61
357.89	-0.31
358.354	-2.01
358.818	-0.31
359.281	-2.21
359.745	-6.81
360.209	-4.51
360.673	-4.51
361.136	-0.31
361.6	2.59
362.064	5.29
362.527	0.39
362.991	4.89
363.454	-5.91
363.918	-4.31
364.381	-7.01
364.845	-7.31
365.308	3.89
365.772	-2.91
366.235	-1.21
366.698	-7.11
367.162	-0.61
367.625	-2.01
368.088	-2.01
368.552	0.09
369.015	-1.51
369.478	-4.11
369.941	4.59
370.404	-3.41
370.867	2.69
371.331	0.09
371.794	-3.91
372.257	-6.91
372.72	1.19
373.183	4.29
373.646	-3.11
374.109	-3.21
374.572	3.39
375.035	-3.81
375.497	-5.01
375.96	2.99
376.423	-2.81
376.886	2.89
377.349	0.09
377.811	-6.11
378.274	0.89
378.737	1.79
379.199	-3.31
379.662	-1.31
380.125	0.49
380.587	-2.91
381.05	-3.31
381.512	-1.51
381.975	10.29
382.437	1.99
382.9	-8.21
383.362	-0.11
383.825	-2.61
384.287	-2.61
384.75	-0.11
385.212	0.39
385.674	3.19
386.136	0.19
386.599	1.69
387.061	-4.11
387.523	-2.61
387.985	1.79
388.447	13.29
388.91	2.69
389.372	3.09
389.834	2.69
390.296	-1.91
390.758	-2.41
391.22	7.49
391.682	3.49
392.144	4.69
392.606	9.59
393.068	6.49
393.529	7.69
393.991	1.19
394.453	-3.31
394.915	3.39
395.377	-0.21
395.838	-0.01
396.3	0.19
396.762	6.59
397.224	6.29
397.685	0.39
398.147	-3.41
398.608	-3.11
399.07	-8.01
399.531	-0.51
399.993	-2.01
400.454	7.39
400.916	1.29
401.377	-7.51
401.839	1.29
402.3	-3.51
402.762	2.29
403.223	-1.31
403.684	-5.11
404.145	-1.21
404.607	-0.91
405.068	5.69
405.529	6.09
405.99	-1.71
406.451	-5.31
406.913	5.19
407.374	-1.11
407.835	-0.21
408.296	-0.41
408.757	-3.71
409.218	2.89
409.679	3.09
410.14	8.19
410.601	1.79
411.062	9.19
411.522	9.79
411.983	-1.21
412.444	-6.71
412.905	6.99
413.366	1.19
413.826	5.39
414.287	-1.41
414.748	10.69
415.208	7.99
415.669	7.29
416.13	10.99
416.59	8.59
417.051	8.29
417.511	6.29
417.972	10.79
418.432	6.09
418.893	15.89
419.353	15.89
419.814	11.89
420.274	3.69
420.734	0.99
421.195	5.49
421.655	2.19
422.115	4.29
422.576	3.59
423.036	5.69
423.496	6.39
423.956	6.99
424.416	8.49
424.876	13.79
425.336	6.49
425.797	10.79
426.257	4.19
426.717	3.09
427.177	14.09
427.637	4.39
428.097	3.19
428.556	5.39
429.016	7.59
429.476	-7.01
429.936	0.89
430.396	1.29
430.856	1.49
431.315	6.69
431.775	2.29
432.235	16.59
432.694	7.69
433.154	9.79
433.614	9.49
434.073	5.79
434.533	7.29
434.993	5.59
435.452	7.89
435.912	5.29
436.371	6.89
436.83	5.99
437.29	9.49
437.749	3.39
438.209	-1.51
438.668	6.79
439.127	6.39
439.587	5.29
440.046	4.39
440.505	6.49
440.964	10.29
441.424	7.29
441.883	0.39
442.342	14.89
442.801	7.49
443.26	5.19
443.719	5.29
444.178	2.49
444.637	-1.81
445.096	3.89
445.555	8.39
446.014	2.29
446.473	7.99
446.932	4.29
447.391	-2.81
447.849	1.29
448.308	4.19
448.767	2.29
449.226	4.89
449.685	1.49
450.143	6.29
450.602	2.99
451.061	1.69
451.519	10.59
451.978	3.69
452.436	-1.31
452.895	-2.61
453.353	11.49
453.812	12.79
454.27	3.29
454.729	8.39
455.187	1.59
455.646	11.99
456.104	-0.01
456.562	5.19
457.021	4.59
457.479	4.09
457.937	6.59
458.395	2.39
458.854	0.59
459.312	4.39
459.77	-1.91
460.228	4.69
460.686	-0.91
461.144	7.09
461.602	4.29
462.06	4.59
462.518	7.59
462.976	7.69
463.434	0.19
463.892	6.69
464.35	5.19
464.808	12.59
465.266	-1.01
465.724	7.79
466.181	14.29
466.639	8.09
467.097	10.29
467.555	4.19
468.012	11.19
468.47	3.59
468.928	11.99
469.385	15.59
469.843	11.69
470.3	6.79
470.758	9.29
471.215	7.09
471.673	8.19
472.13	5.39
472.588	8.69
473.045	13.29
473.503	3.69
473.96	4.79
474.417	7.69
474.875	5.29
475.332	18.19
475.789	16.29
476.246	11.59
476.704	15.49
477.161	7.59
477.618	6.79
478.075	11.39
478.532	16.39
478.989	21.49
479.446	17.09
479.903	22.49
480.36	9.89
480.817	10.19
481.274	17.79
481.731	15.19
482.188	3.49
482.645	13.29
483.102	15.99
483.558	16.59
484.015	17.59
484.472	23.19
484.929	22.79
485.385	20.79
485.842	8.49
486.299	15.49
486.755	23.39
487.212	25.49
487.668	14.39
488.125	21.19
488.582	19.19
489.038	15.99
489.494	10.09
489.951	11.59
490.407	16.99
490.864	12.89
491.32	16.09
491.776	21.09
492.233	17.19
492.689	7.79
493.145	14.29
493.602	14.79
494.058	14.99
494.514	11.19
494.97	16.19
495.426	11.69
495.882	16.29
496.338	10.09
496.794	16.09
497.251	5.19
497.707	13.69
498.163	13.09
498.618	19.59
499.074	11.29
499.53	16.99
499.986	16.99
500.442	10.99
500.898	7.59
501.354	9.49
501.809	11.59
502.265	12.79
502.721	14.69
503.177	21.09
503.632	23.89
504.088	26.39
504.543	23.09
504.999	19.49
505.455	15.09
505.91	17.09
506.366	17.99
506.821	16.49
507.277	19.89
507.732	15.99
508.187	10.69
508.643	12.59
509.098	13.99
509.553	24.49
510.009	29.19
510.464	17.89
510.919	22.59
511.375	19.49
511.83	20.69
512.285	20.69
512.74	29.59
513.195	33.29
513.65	19.89
514.105	23.19
514.56	28.79
515.015	23.79
515.47	28.99
515.925	23.79
516.38	29.29
516.835	31.49
517.29	20.09
517.745	24.49
518.2	21.69
518.655	22.09
519.109	21.19
519.564	26.29
520.019	19.39
520.474	18.09
520.928	23.19
521.383	23.29
521.838	16.39
522.292	19.19
522.747	29.19
523.201	24.39
523.656	15.49
524.11	18.29
524.565	15.39
525.019	10.89
525.474	23.39
525.928	19.69
526.382	14.99
526.837	14.39
527.291	20.49
527.745	14.79
528.2	23.29
528.654	14.59
529.108	9.69
529.562	18.89
530.016	20.89
530.47	11.39
530.925	18.79
531.379	13.29
531.833	13.69
532.287	10.19
532.741	9.29
533.195	17.69
533.649	12.99
534.103	18.99
534.556	10.89
535.01	9.59
535.464	7.69
535.918	17.29
536.372	13.39
536.826	16.69
537.279	16.09
537.733	15.09
538.187	14.49
538.64	4.69
539.094	15.39
539.548	18.39
540.001	15.29
540.455	10.49
540.908	13.69
541.362	18.79
541.815	17.59
542.269	18.99
542.722	11.89
543.175	13.49
543.629	15.09
544.082	21.69
544.536	16.89
544.989	19.99
545.442	23.79
545.895	20.39
546.349	25.29
546.802	16.69
547.255	25.19
547.708	22.09
548.161	24.69
548.614	27.89
549.067	27.09
549.52	12.19
549.973	20.09
550.426	21.99
550.879	12.19
551.332	15.59
551.785	21.19
552.238	19.79
552.691	23.99
553.144	25.09
553.596	22.39
554.049	16.29
554.502	24.69
554.955	30.89
555.407	22.19
555.86	22.29
556.313	23.49
556.765	17.59
557.218	21.59
557.67	18.69
558.123	21.99
558.576	20.79
559.028	24.89
559.48	25.09
559.933	23.99
560.385	22.99
560.838	19.89
561.29	10.49
561.742	18.49
562.195	9.69
562.647	13.69
563.099	17.49
563.551	16.79
564.004	25.29
564.456	13.39
564.908	18.79
565.36	15.19
565.812	17.99
566.264	14.09
566.716	21.49
567.168	19.09
567.62	19.29
568.072	16.09
568.524	16.69
568.976	11.39
569.428	10.89
569.88	9.49
570.332	7.59
570.784	10.09
571.235	6.99
571.687	14.99
572.139	14.59
572.59	16.79
573.042	19.79
573.494	17.19
573.945	17.59
574.397	8.39
574.849	14.09
575.3	14.39
575.752	11.59
576.203	13.59
576.655	18.89
577.106	11.79
577.557	11.09
578.009	20.39
578.46	12.59
578.912	6.99
579.363	8.89
579.814	16.79
580.265	11.69
580.717	8.49
581.168	7.99
581.619	14.89
582.07	15.69
582.521	10.89
582.972	8.99
583.423	13.69
583.875	7.49
584.326	11.89
584.777	8.89
585.227	13.49
585.678	12.09
586.129	10.79
586.58	18.59
587.031	19.49
587.482	20.79
587.933	20.89
588.384	16.29
588.834	14.39
589.285	13.99
589.736	15.19
590.186	13.79
590.637	16.59
591.088	15.89
591.538	17.49
591.989	18.09
592.439	21.99
592.89	14.39
593.34	12.69
593.791	14.99
594.241	13.09
594.692	15.79
595.142	9.59
595.593	9.89
596.043	15.99
596.493	9.99
596.943	15.79
597.394	17.59
597.844	13.79
598.294	8.69
598.744	18.69
599.195	14.79
599.645	25.19
600.095	21.69
600.545	23.79
600.995	23.99
601.445	36.29
601.895	36.09
602.345	44.79
602.795	34.39
603.245	29.09
603.695	21.19
604.145	14.09
604.594	14.49
605.044	18.39
605.494	11.99
605.944	12.99
606.393	13.89
606.843	18.19
607.293	12.39
607.743	10.79
608.192	11.89
608.642	20.09
609.091	16.79
609.541	18.79
609.99	16.29
610.44	15.89
610.889	7.49
611.339	7.79
611.788	4.69
612.238	14.49
612.687	21.29
613.136	16.69
613.586	14.09
614.035	10.79
614.484	12.49
614.933	6.89
615.383	16.29
615.832	17.89
616.281	18.99
616.73	19.29
617.179	17.19
617.628	15.29
618.077	11.29
618.526	14.29
618.975	12.49
619.424	14.89
619.873	14.89
620.322	18.39
620.771	6.39
621.22	12.39
621.669	11.79
622.118	6.79
622.567	1.49
623.015	4.49
623.464	13.79
623.913	8.49
624.361	4.29
624.81	2.19
625.259	2.49
625.707	16.19
626.156	4.89
626.604	10.99
627.053	10.09
627.501	6.39
627.95	11.99
628.398	7.09
628.847	6.29
629.295	-0.11
629.744	6.09
630.192	14.79
630.64	12.29
631.089	1.29
631.537	11.59
631.985	4.49
632.433	2.19
632.881	8.39
633.33	10.99
633.778	3.69
634.226	-1.81
634.674	7.59
635.122	3.09
635.57	8.69
636.018	7.79
636.466	9.59
636.914	5.89
637.362	16.09
637.81	15.39
638.258	17.29
638.705	10.99
639.153	19.09
639.601	5.59
640.049	11.29
640.497	7.49
640.944	21.09
641.392	4.49
641.84	9.49
642.287	5.29
642.735	-2.41
643.182	11.09
643.63	3.39
644.078	-2.81
644.525	13.59
644.973	6.59
645.42	1.59
645.867	9.09
646.315	7.49
646.762	1.29
647.21	6.99
647.657	1.59
648.104	10.89
648.551	7.79
648.999	1.89
649.446	3.89
649.893	2.89
650.34	-0.21
650.787	2.39
651.234	14.59
651.682	7.99
652.129	8.09
652.576	2.49
653.023	11.19
653.47	13.09
653.917	6.29
654.363	10.89
654.81	16.29
655.257	8.59
655.704	11.39
656.151	7.89
656.598	6.59
657.044	8.69
657.491	7.89
657.938	0.29
658.385	13.79
658.831	10.19
659.278	18.19
659.724	4.39
660.171	15.79
660.618	6.49
661.064	10.19
661.511	2.09
661.957	3.29
662.404	7.89
662.85	15.99
663.296	5.09
663.743	8.49
664.189	4.89
664.635	8.69
665.082	4.79
665.528	7.19
665.974	3.69
666.42	3.79
666.867	9.99
667.313	0.99
667.759	10.49
668.205	7.99
668.651	8.99
669.097	7.79
669.543	1.79
669.989	2.59
670.435	9.99
670.881	2.49
671.327	7.59
671.773	10.19
672.219	8.49
672.665	14.99
673.11	2.39
673.556	11.19
674.002	20.19
674.448	11.49
674.893	5.59
675.339	5.39
675.785	4.29
676.23	10.39
676.676	0.39
677.122	3.89
677.567	6.99
678.013	6.69
678.458	5.29
678.904	3.99
679.349	-2.31
679.794	1.99
680.24	9.59
680.685	0.59
681.131	2.79
681.576	3.09
682.021	12.39
682.466	-1.11
682.912	1.59
683.357	-6.81
683.802	5.79
684.247	8.89
684.692	9.69
685.137	5.89
685.583	13.39
686.028	15.89
686.473	9.49
686.918	0.49
687.363	11.19
687.807	6.99
688.252	5.39
688.697	13.99
689.142	2.79
689.587	-1.81
690.032	-3.01
690.477	11.49
690.921	-2.31
691.366	3.99
691.811	4.89
692.255	14.39
692.7	9.69
693.145	15.79
693.589	20.59
694.034	45.29
694.478	61.49
694.923	82.79
695.367	113.79
695.812	47.69
696.256	6.79
696.701	2.29
697.145	3.29
697.59	5.99
698.034	4.49
698.478	2.49
698.922	4.09
699.367	1.49
699.811	10.49
700.255	14.29
700.699	14.19
701.143	10.19
701.588	10.69
702.032	19.59
702.476	9.99
702.92	6.39
703.364	6.49
703.808	12.49
704.252	35.59
704.696	57.79
705.14	73.79
705.584	107.99
706.027	44.79
706.471	11.19
706.915	2.99
707.359	-1.71
707.803	-3.31
708.246	-1.31
708.69	6.99
709.134	10.59
709.577	6.59
710.021	7.89
710.465	0.59
710.908	-2.91
711.352	-1.61
711.795	1.49
712.239	4.69
712.682	0.89
713.126	8.39
713.569	15.39
714.012	16.29
714.456	2.89
714.899	2.19
715.342	-2.81
715.786	-0.31
716.229	1.89
716.672	6.09
717.115	3.89
717.558	2.09
718.002	-2.91
718.445	0.29
718.888	10.19
719.331	1.09
719.774	8.89
720.217	1.89
720.66	1.19
721.103	3.19
721.546	3.39
721.989	5.49
722.432	-7.61
722.874	0.39
723.317	-7.11
723.76	-2.71
724.203	0.49
724.645	12.19
725.088	11.99
725.531	13.59
725.974	19.79
726.416	15.29
726.859	7.89
727.301	1.79
727.744	6.19
728.187	-0.51
728.629	7.69
729.071	-3.41
729.514	5.29
729.956	4.39
730.399	3.29
730.841	-0.61
731.283	-8.21
731.726	5.09
732.168	1.29
732.61	1.29
733.053	-0.01
733.495	1.99
733.937	7.09
734.379	5.59
734.821	9.79
735.263	13.79
735.705	25.39
736.148	62.59
736.59	119.69
737.032	140.19
737.474	116.39
737.916	17.99
738.357	12.29
738.799	2.99
739.241	2.69
739.683	0.99
740.125	3.49
740.567	-1.41
741.008	8.19
741.45	9.79
741.892	7.49
742.334	10.59
742.775	5.69
743.217	0.49
743.658	-6.51
744.1	4.69
744.542	-2.31
744.983	2.89
745.425	1.79
745.866	5.79
746.307	4.49
746.749	6.49
747.19	8.59
747.632	16.59
748.073	23.29
748.514	92.09
748.956	135.89
749.397	159.99
749.838	139.99
750.279	150.89
750.72	53.69
751.162	14.59
751.603	3.19
752.044	5.29
752.485	-0.11
752.926	-6.81
753.367	5.19
753.808	-0.71
754.249	-0.11
754.69	2.99
755.131	-7.21
755.572	-3.31
756.013	-2.41
756.453	-0.01
756.894	-2.61
757.335	-2.31
757.776	-3.91
758.216	1.09
758.657	0.89
759.098	-10.11
759.538	-3.41
759.979	-2.11
760.42	-3.31
760.86	19.19
761.301	66.99
761.741	193.79
762.182	298.59
762.622	195.09
763.063	41.99
763.503	13.49
763.943	-1.91
764.384	5.99
764.824	2.29
765.264	-3.31
765.705	-0.21
766.145	-4.01
766.585	-2.31
767.025	-6.21
767.465	-6.51
767.906	0.19
768.346	0.19
768.786	-4.71
769.226	2.49
769.666	6.59
770.106	15.09
770.546	61.59
770.986	142.89
771.426	120.29
771.866	28.79
772.306	-0.91
772.745	-1.31
773.185	-5.61
773.625	5.69
774.065	-5.41
774.505	-1.61
774.944	-2.21
775.384	2.09
775.824	6.79
776.263	5.29
776.703	-1.71
777.142	-0.71
777.582	-3.11
778.021	-4.31
778.461	-8.81
778.9	7.99
779.34	2.49
779.779	-2.41
780.219	-6.81
780.658	-12.31
781.097	-3.51
781.537	1.09
781.976	0.09
782.415	-2.61
782.855	-7.31
783.294	-8.31
783.733	-4.21
784.172	1.59
784.611	-4.41
785.05	1.49
785.489	-3.11
785.928	0.79
786.367	4.89
786.806	-5.61
787.245	-0.11
787.684	-1.31
788.123	8.09
788.562	-6.61
789.001	1.89
789.44	-2.11
789.879	2.09
790.317	-7.71
790.756	2.29
791.195	-4.81
791.634	-2.91
792.072	9.99
792.511	7.09
792.95	42.89
793.388	99.09
793.827	93.79
794.265	14.49
794.704	0.19
795.142	6.79
795.581	8.29
796.019	4.49
796.458	-3.91
796.896	-6.01
797.334	-7.81
797.773	-0.21
798.211	10.09
798.649	19.39
799.087	41.49
799.526	77.49
799.964	96.89
