Data from 20171114-ORNL-Ar_H_NY_Subt18_08-03-10-743.txt Node
Date: Tue Nov 14 08:03:10 EST 2017
User: Ender
Spectrometer: HR+D1039
Trigger mode: 0
Integration Time (sec): 2.730000E-2
Scans to average: 10
Electric dark correction enabled: true
Nonlinearity correction enabled: false
Boxcar width: 0
XAxis mode: Wavelengths
Number of Pixels in Spectrum: 2048
>>>>>Begin Spectral Data<<<<<
187.836	-2.82
188.309	-2.82
188.782	-2.82
189.255	1.18
189.728	-4.12
190.201	7.08
190.674	-0.32
191.147	1.98
191.619	-10.52
192.092	3.38
192.565	2.88
193.038	1.18
193.511	-0.82
193.984	-3.12
194.456	1.28
194.929	4.28
195.402	-3.82
195.874	2.28
196.347	-1.12
196.82	-8.72
197.292	6.68
197.765	1.48
198.237	-4.82
198.71	-1.12
199.182	2.88
199.655	-1.12
200.127	-4.02
200.6	-0.62
201.072	-6.22
201.544	-3.12
202.017	-0.52
202.489	8.18
202.961	-0.82
203.433	-4.42
203.906	-6.32
204.378	-7.52
204.85	-2.72
205.322	-3.82
205.794	-6.02
206.266	-4.62
206.739	-8.42
207.211	4.68
207.683	-5.72
208.155	-2.22
208.627	-8.32
209.099	-12.02
209.57	-13.52
210.042	-10.22
210.514	-3.82
210.986	-1.52
211.458	-8.82
211.93	-3.52
212.402	3.48
212.873	-6.42
213.345	-5.42
213.817	-10.12
214.288	-3.82
214.76	-13.62
215.232	-9.82
215.703	-3.32
216.175	-5.42
216.646	-2.02
217.118	-1.12
217.589	-5.12
218.061	-0.62
218.532	-5.72
219.004	-5.52
219.475	-3.12
219.946	-4.42
220.418	-7.62
220.889	-0.22
221.36	-1.72
221.832	-2.82
222.303	-5.12
222.774	2.88
223.245	-9.62
223.717	-3.32
224.188	-3.92
224.659	-9.62
225.13	-6.02
225.601	-3.22
226.072	-0.72
226.543	-2.42
227.014	1.98
227.485	-2.92
227.956	-2.42
228.427	-1.02
228.898	-1.12
229.369	1.98
229.839	-5.72
230.31	-10.12
230.781	1.18
231.252	-5.12
231.722	-3.32
232.193	-11.32
232.664	1.18
233.135	-3.72
233.605	-7.42
234.076	-8.82
234.546	-0.02
235.017	3.98
235.487	-5.52
235.958	0.58
236.428	-7.52
236.899	-2.52
237.369	-3.02
237.84	-6.42
238.31	-3.12
238.78	-3.22
239.251	-13.72
239.721	-9.22
240.191	-4.02
240.662	-10.02
241.132	-4.92
241.602	-3.32
242.072	-5.72
242.542	-1.82
243.013	1.48
243.483	0.48
243.953	5.08
244.423	-1.62
244.893	-8.02
245.363	-1.62
245.833	-5.62
246.303	-12.32
246.773	-0.82
247.243	-7.72
247.712	-4.02
248.182	-2.52
248.652	-1.92
249.122	-10.82
249.592	-4.12
250.061	2.28
250.531	2.88
251.001	-3.72
251.471	6.28
251.94	2.98
252.41	-5.02
252.879	-11.52
253.349	2.38
253.818	4.98
254.288	-5.22
254.757	-4.62
255.227	-7.72
255.696	-4.82
256.166	-4.52
256.635	-5.92
257.105	2.88
257.574	-3.92
258.043	-4.02
258.513	-8.12
258.982	-4.92
259.451	-15.92
259.92	-5.62
260.389	-7.52
260.859	1.18
261.328	1.18
261.797	-5.12
262.266	-5.02
262.735	1.78
263.204	-3.32
263.673	-4.72
264.142	-3.22
264.611	-18.32
265.08	-4.42
265.549	-7.42
266.018	3.48
266.487	-10.42
266.955	-15.72
267.424	-6.72
267.893	-5.92
268.362	-7.12
268.83	-4.12
269.299	0.98
269.768	-3.92
270.236	-1.32
270.705	-4.82
271.174	-5.22
271.642	-3.52
272.111	-5.12
272.579	0.98
273.048	-7.42
273.516	-6.02
273.985	-5.82
274.453	-2.52
274.922	0.18
275.39	-4.62
275.858	-12.12
276.327	-4.52
276.795	4.28
277.263	-11.62
277.731	1.28
278.2	-5.12
278.668	-4.82
279.136	-1.22
279.604	-4.22
280.072	-1.52
280.54	-8.82
281.008	-1.72
281.477	4.98
281.945	-0.22
282.413	-7.12
282.881	-1.02
283.348	-6.12
283.816	-2.62
284.284	-3.02
284.752	8.28
285.22	-1.22
285.688	-1.92
286.156	-5.22
286.623	-0.52
287.091	-8.32
287.559	-3.62
288.026	-2.02
288.494	-3.22
288.962	-8.92
289.429	-8.72
289.897	1.48
290.364	-4.82
290.832	-3.92
291.3	-4.52
291.767	0.28
292.234	-1.32
292.702	-11.72
293.169	-10.42
293.637	0.98
294.104	3.48
294.571	-12.02
295.039	-10.12
295.506	-9.72
295.973	-4.62
296.44	-6.92
296.908	-5.92
297.375	-3.42
297.842	-4.52
298.309	-10.72
298.776	-10.22
299.243	-5.22
299.71	-7.52
300.177	-5.02
300.644	5.48
301.111	3.38
301.578	-0.32
302.045	-7.62
302.512	-2.82
302.979	1.08
303.446	-3.22
303.913	-1.22
304.379	-9.02
304.846	0.58
305.313	0.88
305.78	-3.72
306.246	-4.52
306.713	-0.82
307.18	-3.52
307.646	-5.92
308.113	5.38
308.579	-4.42
309.046	-2.02
309.512	-1.22
309.979	-11.22
310.445	-1.62
310.912	0.68
311.378	1.18
311.845	-5.02
312.311	0.18
312.777	1.48
313.244	-3.62
313.71	6.58
314.176	-0.82
314.642	-1.42
315.109	-3.52
315.575	-2.12
316.041	3.78
316.507	-6.22
316.973	3.88
317.439	-0.22
317.905	1.68
318.371	-3.22
318.837	1.58
319.303	-2.72
319.769	-3.32
320.235	-4.02
320.701	-3.72
321.167	-3.62
321.633	-7.72
322.099	-1.92
322.564	3.18
323.03	-0.92
323.496	-0.92
323.962	-1.12
324.427	-7.32
324.893	2.28
325.359	-2.72
325.824	2.58
326.29	-8.42
326.755	-7.72
327.221	-2.72
327.686	-6.82
328.152	-1.32
328.617	-2.52
329.083	0.88
329.548	0.28
330.014	1.38
330.479	-2.52
330.944	-6.62
331.41	-0.12
331.875	-1.82
332.34	-3.42
332.805	-7.12
333.271	-2.22
333.736	-13.42
334.201	2.88
334.666	0.38
335.131	-3.62
335.596	3.18
336.061	2.78
336.526	-10.82
336.991	-2.52
337.456	6.98
337.921	-2.42
338.386	-0.22
338.851	-3.32
339.316	-2.42
339.781	-3.62
340.246	8.28
340.711	-8.62
341.175	3.58
341.64	-10.02
342.105	-3.82
342.569	2.48
343.034	-2.72
343.499	-5.42
343.963	-4.12
344.428	-1.82
344.893	-4.42
345.357	-5.12
345.822	-1.72
346.286	-3.72
346.751	-2.62
347.215	-10.82
347.679	-9.12
348.144	-3.22
348.608	0.08
349.073	-9.82
349.537	-2.92
350.001	-3.32
350.465	0.08
350.93	-5.62
351.394	-0.92
351.858	-8.12
352.322	-0.62
352.786	-7.02
353.25	-1.32
353.715	3.78
354.179	0.28
354.643	6.88
355.107	-4.52
355.571	-1.32
356.035	2.18
356.498	-0.92
356.962	-5.12
357.426	-0.22
357.89	-1.22
358.354	1.78
358.818	1.68
359.281	-2.12
359.745	-8.72
360.209	-4.02
360.673	-3.42
361.136	-4.42
361.6	0.08
362.064	-0.12
362.527	0.98
362.991	6.08
363.454	-4.12
363.918	-8.72
364.381	-12.32
364.845	-2.42
365.308	-2.52
365.772	-2.52
366.235	1.58
366.698	-10.42
367.162	-4.52
367.625	-5.32
368.088	-5.02
368.552	-6.32
369.015	-8.72
369.478	3.98
369.941	-0.52
370.404	-5.32
370.867	-2.02
371.331	-1.02
371.794	-6.22
372.257	-10.52
372.72	3.08
373.183	-3.02
373.646	-8.92
374.109	-8.12
374.572	-3.62
375.035	-6.12
375.497	-5.12
375.96	-4.22
376.423	-4.82
376.886	-6.32
377.349	-5.82
377.811	-8.32
378.274	-3.82
378.737	-8.32
379.199	-3.12
379.662	-5.62
380.125	-3.52
380.587	-8.62
381.05	-8.82
381.512	-3.62
381.975	4.88
382.437	-3.42
382.9	-4.42
383.362	-1.12
383.825	-9.02
384.287	-4.92
384.75	-7.02
385.212	-3.62
385.674	-3.02
386.136	-0.92
386.599	-3.02
387.061	-7.62
387.523	-5.72
387.985	-4.12
388.447	1.78
388.91	-1.32
389.372	-1.12
389.834	-2.02
390.296	1.08
390.758	-2.52
391.22	-4.52
391.682	-3.52
392.144	4.98
392.606	5.98
393.068	-2.12
393.529	1.98
393.991	-3.02
394.453	-2.72
394.915	-5.12
395.377	-3.02
395.838	-4.62
396.3	1.18
396.762	5.28
397.224	-1.22
397.685	-5.12
398.147	-9.62
398.608	-9.22
399.07	-6.62
399.531	2.48
399.993	-7.42
400.454	5.28
400.916	-2.62
401.377	-6.02
401.839	-4.82
402.3	-9.42
402.762	-5.22
403.223	-4.12
403.684	-2.12
404.145	-2.02
404.607	-2.52
405.068	-3.82
405.529	-5.12
405.99	-3.92
406.451	-15.02
406.913	4.28
407.374	-1.42
407.835	-6.82
408.296	-4.52
408.757	-5.92
409.218	-4.02
409.679	-0.42
410.14	1.28
410.601	-1.22
411.062	2.58
411.522	3.58
411.983	-5.02
412.444	-17.82
412.905	1.38
413.366	-9.92
413.826	-2.22
414.287	-7.22
414.748	-4.42
415.208	-3.42
415.669	0.08
416.13	1.08
416.59	-6.52
417.051	-2.82
417.511	-7.22
417.972	-3.72
418.432	-8.72
418.893	2.48
419.353	-1.22
419.814	3.18
420.274	2.08
420.734	-11.12
421.195	-3.52
421.655	-5.12
422.115	1.78
422.576	-3.12
423.036	-2.92
423.496	-0.32
423.956	1.88
424.416	0.78
424.876	1.78
425.336	-5.02
425.797	-0.72
426.257	-2.52
426.717	-9.02
427.177	10.58
427.637	-5.62
428.097	-3.52
428.556	-7.92
429.016	-3.82
429.476	-11.02
429.936	-7.12
430.396	-6.12
430.856	-6.42
431.315	-2.02
431.775	-1.82
432.235	2.08
432.694	-11.12
433.154	5.78
433.614	-5.32
434.073	-5.92
434.533	2.18
434.993	-5.52
435.452	-4.12
435.912	1.78
436.371	-5.92
436.83	-2.52
437.29	2.58
437.749	-1.22
438.209	-13.02
438.668	-2.72
439.127	-6.92
439.587	3.38
440.046	-5.52
440.505	-2.22
440.964	-4.32
441.424	-7.52
441.883	-6.72
442.342	2.88
442.801	-4.02
443.26	-3.92
443.719	2.28
444.178	-2.32
444.637	-10.92
445.096	-6.02
445.555	3.38
446.014	-3.42
446.473	0.88
446.932	-0.12
447.391	-6.02
447.849	-1.52
448.308	-9.62
448.767	-2.02
449.226	-5.22
449.685	-2.32
450.143	1.48
450.602	-5.02
451.061	-10.32
451.519	-4.52
451.978	-11.12
452.436	-6.02
452.895	-3.32
453.353	-3.82
453.812	-0.82
454.27	3.38
454.729	-0.12
455.187	-5.32
455.646	-4.52
456.104	-4.92
456.562	-6.12
457.021	-7.92
457.479	-3.42
457.937	-3.22
458.395	-3.42
458.854	-12.42
459.312	-5.72
459.77	-11.22
460.228	-4.22
460.686	-8.72
461.144	-3.52
461.602	-6.12
462.06	-3.52
462.518	-3.62
462.976	1.08
463.434	-1.92
463.892	-7.32
464.35	-7.22
464.808	3.78
465.266	-0.42
465.724	0.68
466.181	-3.52
466.639	-2.52
467.097	2.28
467.555	-1.12
468.012	2.78
468.47	-1.02
468.928	2.68
469.385	2.58
469.843	0.98
470.3	-5.22
470.758	-3.62
471.215	-1.92
471.673	-4.22
472.13	-0.62
472.588	-4.92
473.045	-4.82
473.503	0.18
473.96	-4.72
474.417	-10.72
474.875	-3.82
475.332	0.08
475.789	-5.02
476.246	-1.72
476.704	-9.12
477.161	0.58
477.618	-4.02
478.075	-2.62
478.532	-0.82
478.989	-6.32
479.446	0.08
479.903	3.08
480.36	-0.62
480.817	-10.32
481.274	-1.52
481.731	-3.02
482.188	-4.12
482.645	1.78
483.102	-6.12
483.558	-6.72
484.015	-2.02
484.472	2.98
484.929	-4.22
485.385	-4.32
485.842	-4.02
486.299	-12.72
486.755	2.88
487.212	2.88
487.668	-6.42
488.125	-0.12
488.582	0.38
489.038	-2.62
489.494	-7.52
489.951	-1.92
490.407	-1.62
490.864	-4.62
491.32	-0.32
491.776	5.78
492.233	-0.52
492.689	-9.12
493.145	-3.12
493.602	-6.72
494.058	-8.42
494.514	-1.02
494.97	6.88
495.426	-6.72
495.882	-8.42
496.338	-0.12
496.794	0.08
497.251	-12.42
497.707	-1.02
498.163	-1.52
498.618	-1.62
499.074	0.18
499.53	-6.02
499.986	-4.02
500.442	-9.82
500.898	-7.02
501.354	-12.42
501.809	-6.02
502.265	-3.72
502.721	0.98
503.177	1.88
503.632	-1.32
504.088	-0.52
504.543	2.38
504.999	-5.02
505.455	-7.22
505.91	-5.72
506.366	-4.72
506.821	-6.52
507.277	-10.82
507.732	-12.82
508.187	-4.82
508.643	-4.92
509.098	-5.82
509.553	-3.32
510.009	2.08
510.464	-8.42
510.919	1.58
511.375	-5.42
511.83	1.68
512.285	-4.92
512.74	0.38
513.195	-4.92
513.65	-4.02
514.105	0.38
514.56	-1.72
515.015	-2.02
515.47	-2.22
515.925	-8.72
516.38	-0.92
516.835	-1.12
517.29	-2.22
517.745	-1.32
518.2	-0.32
518.655	-3.52
519.109	-1.32
519.564	1.18
520.019	-3.72
520.474	-7.22
520.928	-7.82
521.383	2.28
521.838	-6.02
522.292	-2.72
522.747	7.08
523.201	1.58
523.656	2.68
524.11	-3.22
524.565	-6.82
525.019	-7.72
525.474	-4.62
525.928	-4.52
526.382	-7.32
526.837	-1.12
527.291	0.28
527.745	-2.82
528.2	-3.72
528.654	-4.72
529.108	-6.62
529.562	-8.62
530.016	-2.72
530.47	-5.92
530.925	-2.32
531.379	-1.22
531.833	-4.72
532.287	-4.92
532.741	-7.52
533.195	-12.52
533.649	-8.52
534.103	-6.12
534.556	-2.32
535.01	-3.42
535.464	-9.92
535.918	1.28
536.372	-3.82
536.826	2.88
537.279	-0.02
537.733	-4.32
538.187	-3.32
538.64	-3.12
539.094	-1.92
539.548	-6.62
540.001	-13.72
540.455	-9.82
540.908	-5.12
541.362	-3.42
541.815	-4.12
542.269	-1.82
542.722	-5.32
543.175	-4.92
543.629	-8.12
544.082	3.88
544.536	-5.72
544.989	-6.12
545.442	-3.22
545.895	-4.92
546.349	0.78
546.802	-3.62
547.255	-10.12
547.708	-9.02
548.161	-7.52
548.614	-1.42
549.067	1.78
549.52	-8.52
549.973	-5.12
550.426	-3.02
550.879	-14.72
551.332	-1.22
551.785	1.38
552.238	-14.42
552.691	-1.42
553.144	-3.52
553.596	-3.22
554.049	-8.92
554.502	-5.82
554.955	-3.42
555.407	-5.72
555.86	-6.22
556.313	0.88
556.765	-7.82
557.218	4.98
557.67	-1.62
558.123	-11.02
558.576	-6.32
559.028	-3.92
559.48	-5.02
559.933	-5.92
560.385	-8.42
560.838	-2.02
561.29	-3.82
561.742	2.18
562.195	-3.72
562.647	-4.02
563.099	2.18
563.551	-0.82
564.004	2.48
564.456	-3.02
564.908	2.98
565.36	-4.92
565.812	0.88
566.264	-8.22
566.716	1.18
567.168	0.88
567.62	-5.12
568.072	-11.82
568.524	-4.12
568.976	-2.02
569.428	-8.62
569.88	-10.52
570.332	-3.72
570.784	-10.12
571.235	-8.02
571.687	-6.72
572.139	-1.22
572.59	-1.52
573.042	-0.72
573.494	-5.92
573.945	-0.82
574.397	-12.42
574.849	-0.72
575.3	-2.42
575.752	-3.32
576.203	-3.52
576.655	2.48
577.106	-7.52
577.557	-3.62
578.009	-1.72
578.46	-8.32
578.912	1.98
579.363	-7.82
579.814	-1.12
580.265	-11.32
580.717	-13.92
581.168	-9.32
581.619	-6.92
582.07	-1.32
582.521	-5.72
582.972	-6.22
583.423	-6.82
583.875	-9.72
584.326	-15.12
584.777	-6.92
585.227	-1.32
585.678	-1.42
586.129	-7.22
586.58	1.38
587.031	-1.42
587.482	-0.72
587.933	0.08
588.384	-3.32
588.834	-1.82
589.285	0.98
589.736	-3.92
590.186	-7.62
590.637	-6.62
591.088	-0.22
591.538	2.08
591.989	-6.82
592.439	0.58
592.89	-0.82
593.34	-5.42
593.791	-3.12
594.241	-4.22
594.692	-0.82
595.142	-0.72
595.593	-8.72
596.043	-1.92
596.493	-1.32
596.943	-4.02
597.394	-4.62
597.844	-11.22
598.294	-6.32
598.744	-2.42
599.195	-1.82
599.645	-1.92
600.095	-4.42
600.545	-6.32
600.995	-8.32
601.445	-4.52
601.895	-10.62
602.345	-1.22
602.795	-7.52
603.245	-3.32
603.695	-8.02
604.145	-10.22
604.594	4.98
605.044	-3.72
605.494	-5.62
605.944	-13.62
606.393	-0.82
606.843	-1.62
607.293	-1.82
607.743	-11.92
608.192	-7.12
608.642	-2.72
609.091	-0.62
609.541	-2.32
609.99	-3.32
610.44	5.38
610.889	-1.12
611.339	-4.72
611.788	-10.22
612.238	1.78
612.687	4.38
613.136	-4.22
613.586	-3.22
614.035	-4.12
614.484	-6.82
614.933	-5.52
615.383	-2.82
615.832	0.38
616.281	-1.02
616.73	1.38
617.179	3.08
617.628	0.28
618.077	2.08
618.526	0.48
618.975	-8.42
619.424	1.08
619.873	-7.12
620.322	1.98
620.771	-12.02
621.22	0.28
621.669	-3.92
622.118	-3.52
622.567	-2.72
623.015	-6.92
623.464	-0.52
623.913	1.08
624.361	-3.72
624.81	-6.52
625.259	-9.72
625.707	-1.32
626.156	-1.92
626.604	0.28
627.053	-2.12
627.501	-7.82
627.95	-12.12
628.398	-0.42
628.847	-10.32
629.295	-7.92
629.744	-3.62
630.192	2.68
630.64	2.88
631.089	-2.82
631.537	0.28
631.985	-3.52
632.433	0.28
632.881	-2.02
633.33	-1.22
633.778	-8.42
634.226	-9.82
634.674	-1.52
635.122	-6.12
635.57	-5.72
636.018	-7.62
636.466	4.78
636.914	-11.02
637.362	-0.02
637.81	5.18
638.258	4.48
638.705	-4.62
639.153	2.88
639.601	-11.12
640.049	-12.32
640.497	-6.02
640.944	3.48
641.392	-5.72
641.84	-9.32
642.287	-6.32
642.735	-13.02
643.182	-2.42
643.63	-7.42
644.078	-7.22
644.525	0.08
644.973	-4.72
645.42	-4.22
645.867	-4.62
646.315	-1.72
646.762	-4.82
647.21	-0.32
647.657	-9.02
648.104	4.08
648.551	-6.82
648.999	-4.42
649.446	-5.12
649.893	-3.82
650.34	-10.82
650.787	-6.32
651.234	-0.52
651.682	-5.62
652.129	-4.52
652.576	-13.72
653.023	-1.12
653.47	6.78
653.917	-2.62
654.363	3.28
654.81	-4.62
655.257	-7.82
655.704	-7.52
656.151	-9.32
656.598	-5.42
657.044	-2.02
657.491	1.88
657.938	-7.82
658.385	2.08
658.831	1.68
659.278	3.38
659.724	-7.42
660.171	-0.02
660.618	-7.02
661.064	2.68
661.511	-4.02
661.957	-2.72
662.404	-3.52
662.85	2.78
663.296	-0.92
663.743	-4.62
664.189	-4.02
664.635	-3.82
665.082	-2.02
665.528	-3.02
665.974	-10.62
666.42	-7.32
666.867	-5.92
667.313	-11.72
667.759	-0.12
668.205	-4.02
668.651	-0.32
669.097	3.88
669.543	-7.12
669.989	-1.12
670.435	0.88
670.881	-9.12
671.327	-7.82
671.773	1.08
672.219	-2.22
672.665	3.78
673.11	-14.72
673.556	0.08
674.002	-5.52
674.448	-7.32
674.893	-5.32
675.339	-3.92
675.785	-3.22
676.23	0.08
676.676	-6.92
677.122	-7.82
677.567	-8.82
678.013	1.68
678.458	-9.22
678.904	-1.32
679.349	-8.02
679.794	-5.92
680.24	-4.42
680.685	-10.32
681.131	-3.12
681.576	-5.22
682.021	3.98
682.466	-3.72
682.912	-10.32
683.357	-13.22
683.802	-2.02
684.247	-2.12
684.692	-0.12
685.137	-8.12
685.583	0.88
686.028	-9.32
686.473	-0.22
686.918	-2.32
687.363	2.18
687.807	1.98
688.252	-3.92
688.697	3.28
689.142	-8.12
689.587	-7.42
690.032	-11.72
690.477	-3.22
690.921	-7.02
691.366	0.28
691.811	-4.42
692.255	-1.22
692.7	-0.12
693.145	-6.12
693.589	-3.52
694.034	1.08
694.478	-5.02
694.923	1.18
695.367	-2.72
695.812	-4.42
696.256	-2.72
696.701	-7.22
697.145	0.68
697.59	-6.52
698.034	-2.82
698.478	1.48
698.922	-0.82
699.367	0.08
699.811	1.98
700.255	7.48
700.699	-0.02
701.143	-5.22
701.588	-5.02
702.032	0.78
702.476	-5.12
702.92	1.28
703.364	-2.92
703.808	-1.72
704.252	-0.92
704.696	-3.12
705.14	-9.22
705.584	-6.62
706.027	0.28
706.471	-12.12
706.915	-4.82
707.359	-7.62
707.803	-7.42
708.246	-10.22
708.69	-2.92
709.134	2.28
709.577	-1.32
710.021	4.58
710.465	-1.02
710.908	-0.72
711.352	-2.62
711.795	-2.42
712.239	0.98
712.682	-10.32
713.126	-3.52
713.569	-4.32
714.012	-3.52
714.456	-2.82
714.899	0.08
715.342	-8.12
715.786	-6.72
716.229	3.68
716.672	-2.52
717.115	-8.52
717.558	-1.82
718.002	-2.92
718.445	-0.12
718.888	-2.42
719.331	-9.62
719.774	-2.32
720.217	-4.72
720.66	-5.12
721.103	-8.12
721.546	-6.22
721.989	-1.32
722.432	-8.82
722.874	1.28
723.317	-3.02
723.76	-7.02
724.203	-1.52
724.645	-1.02
725.088	0.28
725.531	-9.42
725.974	-9.42
726.416	-5.92
726.859	-5.62
727.301	-5.22
727.744	-5.12
728.187	-0.32
728.629	1.08
729.071	-8.42
729.514	-5.22
729.956	-13.32
730.399	-3.42
730.841	0.18
731.283	-11.92
731.726	-4.82
732.168	-4.02
732.61	-4.62
733.053	-2.02
733.495	-7.52
733.937	-10.32
734.379	-6.72
734.821	-6.52
735.263	-8.22
735.705	-4.72
736.148	-6.12
736.59	4.58
737.032	-7.02
737.474	0.38
737.916	-4.52
738.357	-3.02
738.799	-4.72
739.241	-6.72
739.683	-7.12
740.125	-7.72
740.567	-5.92
741.008	3.38
741.45	-3.82
741.892	5.48
742.334	5.78
742.775	-4.92
743.217	-6.92
743.658	-11.12
744.1	0.98
744.542	-10.72
744.983	-4.12
745.425	-2.62
745.866	-0.42
746.307	1.48
746.749	1.18
747.19	0.18
747.632	-2.62
748.073	-9.72
748.514	-2.62
748.956	-4.02
749.397	-8.22
749.838	-2.62
750.279	-11.32
750.72	-6.92
751.162	-6.12
751.603	-0.72
752.044	-3.02
752.485	-9.52
752.926	-2.22
753.367	-1.12
753.808	-3.32
754.249	-3.12
754.69	-5.72
755.131	-6.52
755.572	-5.12
756.013	-7.12
756.453	-3.42
756.894	-7.62
757.335	-0.12
757.776	1.98
758.216	-2.82
758.657	-2.22
759.098	-8.92
759.538	-12.12
759.979	-12.62
760.42	-9.82
760.86	-9.52
761.301	-2.82
761.741	-0.52
762.182	-4.62
762.622	-2.52
763.063	-8.82
763.503	-8.42
763.943	-11.32
764.384	0.58
764.824	-3.72
765.264	-12.02
765.705	-0.92
766.145	-8.02
766.585	-8.32
767.025	-7.72
767.465	-13.02
767.906	-1.42
768.346	3.38
768.786	-1.62
769.226	-9.72
769.666	-0.32
770.106	-8.12
770.546	-2.42
770.986	-4.22
771.426	-2.72
771.866	-6.32
772.306	-6.42
772.745	-6.92
773.185	-2.02
773.625	-3.72
774.065	-8.42
774.505	-1.82
774.944	-3.82
775.384	-10.52
775.824	-5.32
776.263	-4.32
776.703	-6.72
777.142	-2.92
777.582	-10.02
778.021	-10.82
778.461	-0.12
778.9	1.08
779.34	6.08
779.779	-8.22
780.219	-10.52
780.658	-10.92
781.097	-3.62
781.537	-3.22
781.976	-1.92
782.415	0.98
782.855	-7.72
783.294	-9.02
783.733	-7.42
784.172	-2.92
784.611	-6.92
785.05	-6.42
785.489	-5.52
785.928	-2.12
786.367	5.98
786.806	-6.32
787.245	0.98
787.684	-4.32
788.123	4.88
788.562	1.18
789.001	-3.52
789.44	2.78
789.879	-4.52
790.317	-5.72
790.756	-0.92
791.195	-4.12
791.634	-8.82
792.072	4.58
792.511	-5.22
792.95	-1.72
