Data from 20171114-ORNL-Ar_H_NY_Subt18_08-03-49-232.txt Node
Date: Tue Nov 14 08:03:49 EST 2017
User: Ender
Spectrometer: HR+D1039
Trigger mode: 0
Integration Time (sec): 2.730000E-2
Scans to average: 10
Electric dark correction enabled: true
Nonlinearity correction enabled: false
Boxcar width: 0
XAxis mode: Wavelengths
Number of Pixels in Spectrum: 2048
>>>>>Begin Spectral Data<<<<<
187.836	-7.48
188.309	-7.48
188.782	-7.48
189.255	4.12
189.728	1.52
190.201	9.22
190.674	-2.48
191.147	0.32
191.619	-8.38
192.092	0.02
192.565	1.82
193.038	1.72
193.511	3.32
193.984	-0.38
194.456	-0.18
194.929	-4.28
195.402	-2.58
195.874	3.62
196.347	2.22
196.82	-9.78
197.292	5.82
197.765	-6.48
198.237	-13.88
198.71	-2.08
199.182	-3.98
199.655	0.52
200.127	0.82
200.6	-3.18
201.072	-2.38
201.544	1.22
202.017	2.32
202.489	3.82
202.961	0.72
203.433	-0.38
203.906	-5.98
204.378	-8.68
204.85	0.92
205.322	-7.28
205.794	2.22
206.266	-4.18
206.739	-11.08
207.211	5.32
207.683	-3.38
208.155	-6.58
208.627	-6.78
209.099	-2.98
209.57	-12.18
210.042	-3.48
210.514	-3.78
210.986	-4.78
211.458	-11.38
211.93	-7.28
212.402	2.12
212.873	-3.78
213.345	-6.18
213.817	-10.58
214.288	-6.98
214.76	-7.38
215.232	-2.48
215.703	-2.08
216.175	-8.98
216.646	1.12
217.118	-4.18
217.589	-4.28
218.061	-6.18
218.532	-6.78
219.004	-3.28
219.475	-7.78
219.946	0.22
220.418	-2.48
220.889	-2.68
221.36	-0.88
221.832	1.92
222.303	-11.68
222.774	2.12
223.245	-6.78
223.717	-7.68
224.188	-0.28
224.659	-3.68
225.13	-2.68
225.601	-5.28
226.072	-0.48
226.543	-1.18
227.014	0.22
227.485	-6.08
227.956	-8.48
228.427	-6.88
228.898	0.82
229.369	-4.08
229.839	-4.08
230.31	-4.08
230.781	0.92
231.252	-0.68
231.722	-3.28
232.193	-3.98
232.664	-3.08
233.135	-5.18
233.605	-3.78
234.076	-4.18
234.546	-4.58
235.017	1.52
235.487	0.22
235.958	1.22
236.428	-8.28
236.899	-5.48
237.369	3.72
237.84	-2.58
238.31	1.62
238.78	-0.68
239.251	-12.08
239.721	-3.58
240.191	-2.68
240.662	-8.18
241.132	-2.58
241.602	-7.58
242.072	-4.88
242.542	4.62
243.013	-1.98
243.483	2.72
243.953	-0.28
244.423	-5.48
244.893	-6.18
245.363	0.82
245.833	3.12
246.303	-4.18
246.773	0.52
247.243	2.02
247.712	-1.08
248.182	-3.08
248.652	-5.18
249.122	-9.98
249.592	0.32
250.061	-0.08
250.531	5.72
251.001	-2.68
251.471	5.02
251.94	-0.68
252.41	0.82
252.879	-3.68
253.349	4.92
253.818	8.82
254.288	4.02
254.757	0.32
255.227	-1.38
255.696	-1.38
256.166	1.12
256.635	6.52
257.105	3.42
257.574	-4.38
258.043	0.92
258.513	3.02
258.982	5.32
259.451	-2.68
259.92	-2.58
260.389	2.32
260.859	7.62
261.328	1.12
261.797	6.32
262.266	1.12
262.735	4.92
263.204	6.02
263.673	0.12
264.142	4.02
264.611	-6.98
265.08	-10.48
265.549	-5.68
266.018	1.92
266.487	-3.48
266.955	-1.28
267.424	-10.58
267.893	3.42
268.362	-7.08
268.83	2.12
269.299	9.22
269.768	3.42
270.236	3.32
270.705	0.62
271.174	-6.38
271.642	-5.68
272.111	0.92
272.579	0.22
273.048	1.52
273.516	5.32
273.985	-0.48
274.453	5.82
274.922	3.32
275.39	-0.68
275.858	-3.28
276.327	5.82
276.795	9.42
277.263	-2.18
277.731	10.12
278.2	-4.88
278.668	4.12
279.136	2.72
279.604	7.82
280.072	13.62
280.54	8.12
281.008	1.12
281.477	9.02
281.945	-2.08
282.413	10.02
282.881	10.52
283.348	-0.38
283.816	5.42
284.284	11.72
284.752	21.82
285.22	7.12
285.688	7.92
286.156	5.02
286.623	15.02
287.091	8.02
287.559	3.92
288.026	5.42
288.494	9.42
288.962	-4.18
289.429	2.72
289.897	9.22
290.364	6.82
290.832	11.82
291.3	10.02
291.767	10.32
292.234	8.42
292.702	9.22
293.169	9.12
293.637	12.42
294.104	10.62
294.571	-2.28
295.039	0.42
295.506	6.72
295.973	9.92
296.44	5.72
296.908	6.82
297.375	4.72
297.842	10.12
298.309	6.62
298.776	3.02
299.243	13.82
299.71	5.52
300.177	19.12
300.644	11.52
301.111	9.72
301.578	15.82
302.045	3.32
302.512	12.72
302.979	16.72
303.446	13.02
303.913	10.22
304.379	9.32
304.846	17.82
305.313	16.82
305.78	17.02
306.246	19.12
306.713	12.62
307.18	20.92
307.646	18.52
308.113	16.52
308.579	16.22
309.046	11.62
309.512	14.52
309.979	7.72
310.445	18.72
310.912	20.62
311.378	24.42
311.845	27.92
312.311	21.22
312.777	18.82
313.244	26.02
313.71	21.22
314.176	22.82
314.642	11.92
315.109	18.92
315.575	29.32
316.041	25.72
316.507	19.32
316.973	28.22
317.439	28.72
317.905	28.82
318.371	28.52
318.837	30.22
319.303	28.02
319.769	23.32
320.235	24.52
320.701	18.02
321.167	24.42
321.633	25.32
322.099	26.42
322.564	36.62
323.03	29.12
323.496	26.92
323.962	32.42
324.427	27.52
324.893	32.72
325.359	26.02
325.824	30.22
326.29	31.92
326.755	29.92
327.221	34.12
327.686	28.62
328.152	39.42
328.617	35.12
329.083	35.72
329.548	42.32
330.014	41.22
330.479	33.62
330.944	35.52
331.41	31.52
331.875	39.42
332.34	35.22
332.805	34.62
333.271	39.02
333.736	30.02
334.201	44.22
334.666	42.62
335.131	43.22
335.596	39.92
336.061	37.62
336.526	34.22
336.991	35.82
337.456	47.22
337.921	41.32
338.386	40.32
338.851	45.12
339.316	40.52
339.781	40.82
340.246	38.52
340.711	42.22
341.175	47.42
341.64	34.62
342.105	45.32
342.569	45.42
343.034	47.62
343.499	43.02
343.963	39.82
344.428	56.02
344.893	53.02
345.357	52.22
345.822	58.42
346.286	59.92
346.751	65.52
347.215	58.42
347.679	62.12
348.144	78.42
348.608	70.32
349.073	59.32
349.537	66.42
350.001	65.72
350.465	74.62
350.93	71.82
351.394	75.62
351.858	63.82
352.322	71.02
352.786	74.02
353.25	85.62
353.715	94.82
354.179	84.02
354.643	106.92
355.107	101.92
355.571	94.22
356.035	90.92
356.498	99.82
356.962	91.02
357.426	98.62
357.89	99.02
358.354	79.32
358.818	80.32
359.281	69.82
359.745	71.22
360.209	74.32
360.673	73.22
361.136	73.52
361.6	76.02
362.064	78.82
362.527	81.72
362.991	88.82
363.454	74.02
363.918	77.52
364.381	77.22
364.845	79.62
365.308	87.32
365.772	85.22
366.235	86.22
366.698	82.42
367.162	85.92
367.625	80.52
368.088	87.32
368.552	86.82
369.015	81.32
369.478	89.32
369.941	93.02
370.404	85.22
370.867	94.12
371.331	103.42
371.794	101.72
372.257	96.32
372.72	102.22
373.183	99.42
373.646	94.02
374.109	92.52
374.572	101.52
375.035	98.62
375.497	106.62
375.96	106.32
376.423	105.02
376.886	109.22
377.349	106.32
377.811	99.32
378.274	101.42
378.737	100.92
379.199	103.92
379.662	105.62
380.125	104.62
380.587	108.62
381.05	108.72
381.512	108.12
381.975	115.12
382.437	122.42
382.9	117.32
383.362	121.42
383.825	130.42
384.287	125.12
384.75	121.62
385.212	123.52
385.674	129.32
386.136	127.62
386.599	121.62
387.061	126.52
387.523	119.52
387.985	129.62
388.447	133.42
388.91	120.32
389.372	127.22
389.834	133.62
390.296	122.52
390.758	127.62
391.22	138.22
391.682	147.42
392.144	150.22
392.606	140.92
393.068	141.92
393.529	157.02
393.991	141.02
394.453	133.02
394.915	135.92
395.377	138.12
395.838	141.12
396.3	136.92
396.762	140.42
397.224	141.62
397.685	136.62
398.147	138.92
398.608	143.02
399.07	132.92
399.531	141.12
399.993	146.12
400.454	161.12
400.916	148.12
401.377	150.92
401.839	157.02
402.3	155.32
402.762	168.82
403.223	188.22
403.684	178.32
404.145	168.22
404.607	162.72
405.068	165.82
405.529	175.82
405.99	189.82
406.451	179.32
406.913	174.42
407.374	173.72
407.835	164.62
408.296	174.62
408.757	188.42
409.218	188.82
409.679	182.22
410.14	189.12
410.601	188.12
411.062	183.82
411.522	185.02
411.983	186.62
412.444	180.32
412.905	191.12
413.366	189.12
413.826	207.22
414.287	232.32
414.748	287.82
415.208	260.02
415.669	233.42
416.13	221.92
416.59	217.22
417.051	230.22
417.511	237.72
417.972	265.02
418.432	267.62
418.893	315.12
419.353	274.12
419.814	212.52
420.274	197.92
420.734	190.72
421.195	203.82
421.655	197.42
422.115	207.12
422.576	202.22
423.036	205.62
423.496	215.32
423.956	225.02
424.416	240.32
424.876	283.42
425.336	271.02
425.797	268.22
426.257	267.82
426.717	250.82
427.177	240.52
427.637	227.12
428.097	243.02
428.556	250.32
429.016	275.12
429.476	265.92
429.936	271.92
430.396	280.62
430.856	293.62
431.315	310.02
431.775	349.82
432.235	380.42
432.694	358.52
433.154	354.72
433.614	372.62
434.073	336.52
434.533	291.02
434.993	268.62
435.452	276.32
435.912	285.22
436.371	279.62
436.83	268.52
437.29	263.82
437.749	249.52
438.209	245.22
438.668	263.42
439.127	273.72
439.587	260.92
440.046	239.92
440.505	260.02
440.964	268.52
441.424	308.52
441.883	287.72
442.342	258.82
442.801	235.32
443.26	238.82
443.719	237.42
444.178	229.52
444.637	216.52
445.096	231.62
445.555	237.12
446.014	233.92
446.473	235.82
446.932	236.92
447.391	232.92
447.849	237.82
448.308	237.02
448.767	230.52
449.226	243.32
449.685	251.32
450.143	260.22
450.602	244.72
451.061	231.42
451.519	239.82
451.978	242.52
452.436	238.42
452.895	245.62
453.353	252.82
453.812	247.12
454.27	239.92
454.729	246.42
455.187	242.92
455.646	242.02
456.104	250.52
456.562	263.32
457.021	270.72
457.479	262.92
457.937	271.52
458.395	269.22
458.854	253.42
459.312	260.12
459.77	274.72
460.228	255.72
460.686	253.12
461.144	259.82
461.602	251.72
462.06	260.22
462.518	262.12
462.976	260.02
463.434	267.02
463.892	269.32
464.35	276.02
464.808	289.72
465.266	276.82
465.724	282.12
466.181	281.02
466.639	287.62
467.097	294.52
467.555	302.42
468.012	297.22
468.47	306.52
468.928	327.52
469.385	341.62
469.843	344.52
470.3	337.02
470.758	352.82
471.215	370.72
471.673	387.82
472.13	392.12
472.588	401.92
473.045	374.72
473.503	375.32
473.96	397.22
474.417	400.82
474.875	414.12
475.332	456.62
475.789	453.92
476.246	452.12
476.704	479.72
477.161	490.62
477.618	504.42
478.075	537.32
478.532	583.42
478.989	638.82
479.446	718.22
479.903	711.42
480.36	756.62
480.817	791.82
481.274	874.32
481.731	962.22
482.188	1035.42
482.645	1160.62
483.102	1247.02
483.558	1353.02
484.015	1410.92
484.472	1390.62
484.929	1346.72
485.385	1299.62
485.842	1270.03
486.299	1232.32
486.755	1169.52
487.212	1004.32
487.668	864.82
488.125	807.82
488.582	747.02
489.038	720.72
489.494	682.82
489.951	657.72
490.407	633.62
490.864	621.12
491.32	619.92
491.776	619.22
492.233	612.92
492.689	591.82
493.145	582.42
493.602	574.02
494.058	584.72
494.514	584.32
494.97	594.12
495.426	608.52
495.882	584.52
496.338	578.92
496.794	590.42
497.251	580.82
497.707	593.62
498.163	599.42
498.618	597.22
499.074	596.32
499.53	620.52
499.986	625.02
500.442	603.12
500.898	591.52
501.354	589.52
501.809	594.82
502.265	595.12
502.721	599.02
503.177	606.52
503.632	609.92
504.088	610.32
504.543	623.82
504.999	646.42
505.455	618.12
505.91	598.92
506.366	605.42
506.821	597.22
507.277	595.42
507.732	598.92
508.187	598.02
508.643	613.72
509.098	606.22
509.553	628.72
510.009	634.52
510.464	626.02
510.919	647.02
511.375	653.02
511.83	654.32
512.285	661.42
512.74	697.92
513.195	706.82
513.65	707.32
514.105	713.92
514.56	721.02
515.015	726.52
515.47	734.42
515.925	722.12
516.38	722.52
516.835	737.02
517.29	730.12
517.745	720.72
518.2	708.32
518.655	694.22
519.109	683.32
519.564	670.72
520.019	671.42
520.474	666.72
520.928	655.52
521.383	662.32
521.838	646.52
522.292	664.52
522.747	658.12
523.201	651.92
523.656	639.42
524.11	633.02
524.565	645.02
525.019	638.12
525.474	639.42
525.928	637.32
526.382	636.32
526.837	626.32
527.291	643.52
527.745	637.82
528.2	639.32
528.654	618.52
529.108	623.52
529.562	625.62
530.016	611.52
530.47	630.12
530.925	621.52
531.379	631.82
531.833	626.42
532.287	624.12
532.741	630.82
533.195	621.02
533.649	625.82
534.103	629.82
534.556	632.72
535.01	639.72
535.464	626.32
535.918	631.42
536.372	638.92
536.826	631.12
537.279	614.82
537.733	626.22
538.187	622.52
538.64	635.62
539.094	634.62
539.548	647.52
540.001	641.82
540.455	646.72
540.908	646.02
541.362	651.52
541.815	658.32
542.269	664.72
542.722	673.92
543.175	671.22
543.629	678.02
544.082	692.32
544.536	699.92
544.989	692.52
545.442	699.02
545.895	700.92
546.349	693.52
546.802	695.32
547.255	697.72
547.708	707.92
548.161	706.12
548.614	715.52
549.067	715.02
549.52	708.82
549.973	708.02
550.426	700.42
550.879	686.42
551.332	690.72
551.785	695.12
552.238	699.32
552.691	703.92
553.144	714.22
553.596	732.52
554.049	750.52
554.502	773.42
554.955	769.72
555.407	785.92
555.86	771.12
556.313	748.72
556.765	749.22
557.218	747.52
557.67	749.32
558.123	743.32
558.576	729.02
559.028	753.32
559.48	760.42
559.933	743.82
560.385	707.62
560.838	689.32
561.29	662.92
561.742	674.62
562.195	651.42
562.647	653.52
563.099	652.42
563.551	662.22
564.004	665.82
564.456	649.62
564.908	641.12
565.36	627.52
565.812	621.12
566.264	598.42
566.716	598.52
567.168	596.02
567.62	596.92
568.072	584.12
568.524	579.82
568.976	586.12
569.428	566.32
569.88	569.62
570.332	571.62
570.784	571.02
571.235	579.12
571.687	584.32
572.139	590.22
572.59	598.42
573.042	592.62
573.494	579.52
573.945	585.82
574.397	565.12
574.849	567.92
575.3	559.02
575.752	570.92
576.203	549.62
576.655	560.52
577.106	546.42
577.557	541.12
578.009	538.32
578.46	541.12
578.912	540.92
579.363	534.32
579.814	545.02
580.265	541.22
580.717	535.52
581.168	543.52
581.619	540.22
582.07	555.02
582.521	542.82
582.972	542.02
583.423	550.72
583.875	543.72
584.326	549.52
584.777	556.72
585.227	580.72
585.678	598.82
586.129	614.52
586.58	626.32
587.031	644.42
587.482	682.12
587.933	712.02
588.384	692.02
588.834	641.12
589.285	626.42
589.736	624.12
590.186	615.42
590.637	606.22
591.088	594.02
591.538	590.12
591.989	580.82
592.439	577.82
592.89	579.72
593.34	560.92
593.791	560.82
594.241	550.12
594.692	552.02
595.142	544.62
595.593	544.42
596.043	548.72
596.493	542.32
596.943	562.12
597.394	571.02
597.844	561.42
598.294	578.42
598.744	599.52
599.195	617.62
599.645	639.02
600.095	679.82
600.545	709.92
600.995	756.92
601.445	800.12
601.895	847.52
602.345	891.22
602.795	873.62
603.245	830.92
603.695	805.12
604.145	760.32
604.594	722.32
605.044	686.92
605.494	622.12
605.944	588.72
606.393	580.52
606.843	570.22
607.293	560.22
607.743	556.62
608.192	570.92
608.642	574.32
609.091	585.82
609.541	587.52
609.99	584.92
610.44	572.72
610.889	553.92
611.339	548.22
611.788	526.62
612.238	529.72
612.687	535.52
613.136	525.42
613.586	543.12
614.035	535.62
614.484	546.02
614.933	543.82
615.383	540.12
615.832	537.82
616.281	527.22
616.73	510.52
617.179	506.02
617.628	491.22
618.077	488.32
618.526	475.12
618.975	475.62
619.424	467.22
619.873	467.42
620.322	471.12
620.771	462.62
621.22	454.62
621.669	445.12
622.118	441.22
622.567	435.32
623.015	435.22
623.464	420.62
623.913	413.22
624.361	413.12
624.81	410.52
625.259	421.62
625.707	423.32
626.156	417.72
626.604	428.22
627.053	432.32
627.501	427.72
627.95	421.32
628.398	436.12
628.847	428.12
629.295	426.42
629.744	440.42
630.192	431.02
630.64	426.92
631.089	412.12
631.537	401.12
631.985	389.52
632.433	394.52
632.881	388.42
633.33	384.62
633.778	382.92
634.226	383.92
634.674	403.32
635.122	390.92
635.57	405.02
636.018	414.12
636.466	415.42
636.914	409.62
637.362	418.22
637.81	424.82
638.258	430.82
638.705	429.52
639.153	449.82
639.601	447.02
640.049	475.42
640.497	501.42
640.944	522.52
641.392	478.72
641.84	452.02
642.287	429.12
642.735	416.52
643.182	423.02
643.63	408.72
644.078	406.82
644.525	427.52
644.973	424.22
645.42	435.12
645.867	448.42
646.315	463.92
646.762	468.62
647.21	502.02
647.657	512.32
648.104	534.42
648.551	551.62
648.999	591.02
649.446	638.22
649.893	686.12
650.34	782.42
650.787	922.22
651.234	1140.12
651.682	1456.43
652.129	1953.72
652.576	2736.32
653.023	4013.73
653.47	5549.52
653.917	7031.32
654.363	8220.33
654.81	9337.62
655.257	8884.92
655.704	5866.53
656.151	3492.43
656.598	2290.73
657.044	1632.02
657.491	1259.42
657.938	1016.82
658.385	856.92
658.831	746.32
659.278	678.52
659.724	596.52
660.171	546.02
660.618	497.22
661.064	482.62
661.511	462.12
661.957	444.82
662.404	438.12
662.85	448.22
663.296	431.72
663.743	404.12
664.189	388.42
664.635	376.32
665.082	381.82
665.528	376.82
665.974	368.32
666.42	363.92
666.867	357.72
667.313	338.82
667.759	330.22
668.205	326.92
668.651	325.82
669.097	325.42
669.543	316.92
669.989	321.22
670.435	326.12
670.881	321.52
671.327	333.12
671.773	334.52
672.219	353.32
672.665	393.12
673.11	419.52
673.556	462.82
674.002	485.72
674.448	484.72
674.893	404.02
675.339	347.02
675.785	318.42
676.23	311.42
676.676	290.32
677.122	281.02
677.567	271.02
678.013	270.62
678.458	257.52
678.904	259.72
679.349	253.22
679.794	252.62
680.24	253.72
680.685	250.42
681.131	249.82
681.576	249.62
682.021	252.82
682.466	250.72
682.912	248.02
683.357	246.92
683.802	268.02
684.247	285.42
684.692	317.12
685.137	344.82
685.583	392.02
686.028	409.02
686.473	374.42
686.918	313.72
687.363	297.72
687.807	278.02
688.252	263.92
688.697	261.62
689.142	242.32
689.587	245.32
690.032	239.22
690.477	241.32
690.921	256.62
691.366	270.22
691.811	284.92
692.255	314.32
692.7	327.32
693.145	354.92
693.589	476.52
694.034	785.02
694.478	1092.82
694.923	1280.92
695.367	1708.22
695.812	895.12
696.256	370.52
696.701	265.12
697.145	245.52
697.59	231.62
698.034	232.12
698.478	235.22
698.922	228.52
699.367	229.52
699.811	240.92
700.255	245.82
700.699	269.52
701.143	293.12
701.588	330.72
702.032	365.22
702.476	372.52
702.92	352.42
703.364	347.52
703.808	440.02
704.252	714.92
704.696	1026.32
705.14	1234.53
705.584	1607.12
706.027	785.12
706.471	388.22
706.915	284.22
707.359	249.22
707.803	229.22
708.246	217.92
708.69	224.62
709.134	224.72
709.577	220.72
710.021	226.72
710.465	223.32
710.908	213.02
711.352	205.72
711.795	216.82
712.239	240.32
712.682	270.82
713.126	290.52
713.569	326.12
714.012	247.32
714.456	214.42
714.899	203.62
715.342	186.02
715.786	178.82
716.229	184.52
716.672	192.62
717.115	170.02
717.558	176.22
718.002	176.82
718.445	184.82
718.888	202.52
719.331	204.82
719.774	213.82
720.217	217.22
720.66	201.12
721.103	189.72
721.546	182.52
721.989	176.42
722.432	160.92
722.874	171.02
723.317	162.52
723.76	165.82
724.203	176.92
724.645	217.12
725.088	297.02
725.531	404.32
725.974	463.62
726.416	398.82
726.859	215.52
727.301	176.32
727.744	162.92
728.187	166.02
728.629	169.42
729.071	178.32
729.514	182.02
729.956	187.92
730.399	209.02
730.841	205.72
731.283	192.32
731.726	191.52
732.168	186.42
732.61	188.42
733.053	200.72
733.495	216.72
733.937	240.52
734.379	277.42
734.821	302.92
735.263	380.22
735.705	575.82
736.148	1077.02
736.59	1829.92
737.032	2297.82
737.474	1893.42
737.916	601.02
738.357	304.42
738.799	231.32
739.241	212.72
739.683	202.42
740.125	218.12
740.567	215.32
741.008	236.22
741.45	226.92
741.892	229.62
742.334	246.12
742.775	262.12
743.217	256.42
743.658	200.62
744.1	180.12
744.542	190.82
744.983	229.12
745.425	269.62
745.866	261.22
746.307	204.42
746.749	195.72
747.19	218.32
747.632	305.52
748.073	588.12
748.514	1261.53
748.956	2057.92
749.397	2581.42
749.838	2156.32
750.279	2250.33
750.72	1144.82
751.162	412.42
751.603	235.22
752.044	186.72
752.485	152.82
752.926	148.02
753.367	144.22
753.808	144.32
754.249	135.02
754.69	134.12
755.131	131.92
755.572	124.32
756.013	126.52
756.453	127.52
756.894	135.62
757.335	130.32
757.776	140.42
758.216	133.12
758.657	134.42
759.098	136.92
759.538	158.02
759.979	185.12
760.42	257.52
760.86	480.52
761.301	1257.93
761.741	3128.52
762.182	5000.83
762.622	3550.43
763.063	1004.42
763.503	398.42
763.943	240.32
