Data from 20171114-ORNL-Ar_H_NY_Subt18_08-03-53-054.txt Node
Date: Tue Nov 14 08:03:53 EST 2017
User: Ender
Spectrometer: HR+D1039
Trigger mode: 0
Integration Time (sec): 2.730000E-2
Scans to average: 10
Electric dark correction enabled: true
Nonlinearity correction enabled: false
Boxcar width: 0
XAxis mode: Wavelengths
Number of Pixels in Spectrum: 2048
>>>>>Begin Spectral Data<<<<<
187.836	-3.16
188.309	-3.16
188.782	-3.16
189.255	-1.96
189.728	0.64
190.201	5.84
190.674	-1.76
191.147	5.74
191.619	-4.56
192.092	0.94
192.565	-0.56
193.038	4.04
193.511	2.54
193.984	1.94
194.456	-1.66
194.929	0.84
195.402	-4.66
195.874	-4.16
196.347	1.34
196.82	-7.06
197.292	7.64
197.765	3.94
198.237	-5.36
198.71	1.14
199.182	-1.86
199.655	-0.86
200.127	0.64
200.6	-1.26
201.072	1.14
201.544	-3.86
202.017	0.04
202.489	-0.66
202.961	-0.36
203.433	-6.06
203.906	-9.46
204.378	-6.66
204.85	0.44
205.322	-9.36
205.794	0.84
206.266	-0.16
206.739	-14.86
207.211	4.34
207.683	-10.56
208.155	-2.26
208.627	-7.86
209.099	-0.66
209.57	-4.76
210.042	-0.56
210.514	0.74
210.986	0.34
211.458	-12.66
211.93	0.34
212.402	1.44
212.873	-5.66
213.345	-8.66
213.817	-11.46
214.288	-10.26
214.76	-9.66
215.232	-0.06
215.703	-6.16
216.175	-2.66
216.646	-3.06
217.118	-4.16
217.589	-4.26
218.061	-0.86
218.532	-7.06
219.004	-3.66
219.475	-2.56
219.946	-2.46
220.418	-6.96
220.889	2.74
221.36	-0.76
221.832	-8.96
222.303	-6.16
222.774	-1.36
223.245	-11.46
223.717	-2.66
224.188	-7.66
224.659	-6.76
225.13	-4.06
225.601	-3.86
226.072	-1.86
226.543	-5.56
227.014	1.34
227.485	-1.96
227.956	0.94
228.427	-2.26
228.898	2.44
229.369	2.04
229.839	-2.46
230.31	-4.56
230.781	-3.66
231.252	-2.16
231.722	-10.06
232.193	-8.86
232.664	-3.26
233.135	-4.66
233.605	1.34
234.076	-5.96
234.546	-7.86
235.017	6.64
235.487	-3.16
235.958	-4.26
236.428	-7.46
236.899	-0.56
237.369	-5.26
237.84	-11.86
238.31	-0.26
238.78	-1.86
239.251	-1.66
239.721	-3.36
240.191	-9.76
240.662	-5.26
241.132	-1.46
241.602	-0.66
242.072	-7.06
242.542	2.54
243.013	-8.56
243.483	-6.66
243.953	3.34
244.423	5.94
244.893	-9.06
245.363	-0.96
245.833	-5.16
246.303	-4.46
246.773	7.34
247.243	-3.76
247.712	-3.46
248.182	-2.36
248.652	2.14
249.122	-10.36
249.592	-0.06
250.061	1.34
250.531	9.84
251.001	-3.86
251.471	4.04
251.94	4.14
252.41	-0.26
252.879	-4.26
253.349	5.84
253.818	-0.66
254.288	-1.16
254.757	-1.36
255.227	-4.16
255.696	-5.66
256.166	6.44
256.635	4.14
257.105	-1.96
257.574	-2.76
258.043	-3.06
258.513	-3.86
258.982	-0.66
259.451	-10.56
259.92	1.54
260.389	-2.36
260.859	9.34
261.328	0.14
261.797	2.24
262.266	-5.96
262.735	2.94
263.204	-2.46
263.673	-2.76
264.142	4.24
264.611	-3.06
265.08	-5.16
265.549	-5.06
266.018	2.74
266.487	-9.46
266.955	-8.16
267.424	-5.76
267.893	0.04
268.362	-0.96
268.83	5.04
269.299	4.74
269.768	-2.36
270.236	0.74
270.705	-4.56
271.174	-2.56
271.642	3.04
272.111	2.14
272.579	4.64
273.048	4.54
273.516	0.74
273.985	4.04
274.453	5.64
274.922	9.94
275.39	6.64
275.858	1.14
276.327	4.34
276.795	6.14
277.263	3.74
277.731	6.64
278.2	3.84
278.668	4.14
279.136	9.34
279.604	-2.06
280.072	12.34
280.54	2.64
281.008	7.14
281.477	2.94
281.945	10.24
282.413	8.64
282.881	11.04
283.348	6.14
283.816	8.24
284.284	8.64
284.752	14.44
285.22	3.64
285.688	13.74
286.156	7.64
286.623	20.04
287.091	10.34
287.559	9.84
288.026	2.84
288.494	10.24
288.962	1.64
289.429	0.04
289.897	7.44
290.364	10.54
290.832	11.24
291.3	6.14
291.767	9.34
292.234	8.64
292.702	0.74
293.169	6.94
293.637	9.64
294.104	4.54
294.571	-2.36
295.039	7.64
295.506	3.54
295.973	7.94
296.44	6.34
296.908	6.44
297.375	9.14
297.842	11.74
298.309	4.34
298.776	3.34
299.243	14.14
299.71	7.34
300.177	10.94
300.644	11.54
301.111	11.04
301.578	15.34
302.045	8.44
302.512	14.84
302.979	17.84
303.446	19.34
303.913	14.24
304.379	8.44
304.846	16.64
305.313	15.34
305.78	15.04
306.246	14.14
306.713	20.54
307.18	8.24
307.646	14.64
308.113	17.24
308.579	15.64
309.046	16.34
309.512	14.34
309.979	11.74
310.445	25.14
310.912	16.94
311.378	24.84
311.845	18.74
312.311	18.04
312.777	19.24
313.244	17.84
313.71	35.04
314.176	18.74
314.642	19.74
315.109	17.94
315.575	24.54
316.041	27.64
316.507	18.34
316.973	28.44
317.439	19.54
317.905	26.24
318.371	25.74
318.837	20.94
319.303	24.84
319.769	26.34
320.235	22.24
320.701	25.94
321.167	29.94
321.633	24.74
322.099	24.24
322.564	31.14
323.03	26.44
323.496	23.14
323.962	25.14
324.427	27.54
324.893	29.44
325.359	26.44
325.824	27.14
326.29	26.54
326.755	32.24
327.221	31.44
327.686	27.64
328.152	29.84
328.617	26.64
329.083	34.24
329.548	37.34
330.014	36.84
330.479	31.04
330.944	31.24
331.41	33.94
331.875	25.44
332.34	30.44
332.805	30.54
333.271	34.94
333.736	26.34
334.201	43.24
334.666	36.64
335.131	40.84
335.596	40.94
336.061	40.84
336.526	32.94
336.991	37.74
337.456	45.64
337.921	37.94
338.386	34.24
338.851	32.54
339.316	36.84
339.781	36.94
340.246	40.74
340.711	37.14
341.175	43.44
341.64	39.64
342.105	42.34
342.569	50.44
343.034	52.74
343.499	43.34
343.963	45.64
344.428	52.84
344.893	50.64
345.357	56.44
345.822	48.94
346.286	55.44
346.751	58.34
347.215	50.94
347.679	59.34
348.144	73.14
348.608	67.34
349.073	58.14
349.537	62.84
350.001	61.84
350.465	71.94
350.93	64.94
351.394	67.64
351.858	62.54
352.322	71.24
352.786	58.94
353.25	80.24
353.715	87.74
354.179	81.04
354.643	98.44
355.107	95.84
355.571	82.04
356.035	82.04
356.498	88.44
356.962	86.94
357.426	94.24
357.89	81.74
358.354	70.54
358.818	69.44
359.281	71.24
359.745	66.24
360.209	69.24
360.673	64.44
361.136	71.84
361.6	76.04
362.064	75.14
362.527	80.14
362.991	78.24
363.454	68.74
363.918	62.34
364.381	68.54
364.845	72.14
365.308	79.44
365.772	78.34
366.235	83.14
366.698	76.14
367.162	75.34
367.625	77.04
368.088	90.14
368.552	83.14
369.015	81.14
369.478	82.74
369.941	88.34
370.404	80.34
370.867	91.44
371.331	89.04
371.794	94.94
372.257	81.14
372.72	94.94
373.183	90.04
373.646	81.54
374.109	87.24
374.572	91.84
375.035	93.04
375.497	96.54
375.96	94.94
376.423	93.44
376.886	108.64
377.349	102.54
377.811	93.74
378.274	90.04
378.737	96.44
379.199	102.04
379.662	105.54
380.125	104.84
380.587	103.64
381.05	97.24
381.512	108.64
381.975	117.34
382.437	112.84
382.9	113.84
383.362	119.24
383.825	116.34
384.287	121.74
384.75	111.54
385.212	117.14
385.674	121.84
386.136	121.14
386.599	112.14
387.061	113.04
387.523	117.84
387.985	119.34
388.447	126.64
388.91	118.04
389.372	123.74
389.834	125.54
390.296	117.14
390.758	117.74
391.22	128.84
391.682	131.34
392.144	131.14
392.606	132.84
393.068	135.34
393.529	144.24
393.991	129.94
394.453	124.74
394.915	132.74
395.377	123.44
395.838	131.04
396.3	131.84
396.762	137.74
397.224	124.34
397.685	128.24
398.147	126.44
398.608	130.24
399.07	121.44
399.531	125.94
399.993	134.84
400.454	149.74
400.916	137.44
401.377	150.24
401.839	148.74
402.3	143.54
402.762	160.24
403.223	170.24
403.684	168.04
404.145	147.44
404.607	150.84
405.068	159.24
405.529	159.14
405.99	173.64
406.451	162.04
406.913	168.34
407.374	157.64
407.835	152.84
408.296	167.54
408.757	163.24
409.218	179.04
409.679	165.14
410.14	163.94
410.601	167.04
411.062	179.64
411.522	177.74
411.983	173.34
412.444	168.04
412.905	179.04
413.366	183.34
413.826	194.04
414.287	215.44
414.748	267.24
415.208	251.94
415.669	208.94
416.13	207.54
416.59	199.84
417.051	215.54
417.511	219.04
417.972	239.84
418.432	246.24
418.893	293.84
419.353	261.24
419.814	206.04
420.274	184.34
420.734	174.34
421.195	188.64
421.655	189.14
422.115	184.54
422.576	194.74
423.036	192.34
423.496	202.24
423.956	214.54
424.416	226.44
424.876	259.84
425.336	258.04
425.797	257.64
426.257	249.84
426.717	231.14
427.177	226.74
427.637	212.24
428.097	226.54
428.556	229.74
429.016	260.34
429.476	254.94
429.936	256.44
430.396	259.54
430.856	270.84
431.315	286.74
431.775	318.54
432.235	354.24
432.694	329.14
433.154	336.44
433.614	352.94
434.073	312.34
434.533	271.54
434.993	254.74
435.452	263.24
435.912	269.14
436.371	253.84
436.83	257.24
437.29	246.94
437.749	235.14
438.209	229.34
438.668	249.64
439.127	257.74
439.587	240.84
440.046	228.64
440.505	244.34
440.964	257.44
441.424	282.04
441.883	280.44
442.342	247.24
442.801	219.44
443.26	220.34
443.719	217.04
444.178	210.74
444.637	207.54
445.096	212.14
445.555	219.84
446.014	224.44
446.473	219.04
446.932	227.14
447.391	220.84
447.849	222.94
448.308	213.14
448.767	209.84
449.226	227.64
449.685	230.84
450.143	240.54
450.602	235.14
451.061	223.64
451.519	227.84
451.978	226.34
452.436	226.74
452.895	229.14
453.353	241.14
453.812	227.24
454.27	234.04
454.729	238.74
455.187	228.64
455.646	226.54
456.104	237.64
456.562	251.34
457.021	252.24
457.479	245.24
457.937	257.74
458.395	255.94
458.854	239.84
459.312	239.94
459.77	252.94
460.228	243.54
460.686	233.74
461.144	246.04
461.602	242.04
462.06	240.44
462.518	245.64
462.976	248.54
463.434	256.14
463.892	257.14
464.35	261.94
464.808	273.74
465.266	258.54
465.724	263.54
466.181	263.84
466.639	271.34
467.097	279.84
467.555	292.04
468.012	282.34
468.47	294.74
468.928	308.94
469.385	320.24
469.843	324.54
470.3	317.54
470.758	337.14
471.215	340.84
471.673	366.64
472.13	368.94
472.588	379.74
473.045	355.64
473.503	368.24
473.96	374.54
474.417	385.64
474.875	404.94
475.332	435.64
475.789	427.74
476.246	438.04
476.704	455.84
477.161	468.64
477.618	488.84
478.075	517.94
478.532	550.84
478.989	612.94
479.446	690.84
479.903	675.84
480.36	709.74
480.817	756.64
481.274	839.14
481.731	921.14
482.188	992.84
482.645	1100.94
483.102	1186.14
483.558	1296.14
484.015	1342.74
484.472	1323.64
484.929	1288.34
485.385	1246.74
485.842	1212.54
486.299	1166.54
486.755	1115.14
487.212	968.44
487.668	828.04
488.125	766.54
488.582	709.84
489.038	682.04
489.494	656.14
489.951	626.64
490.407	606.94
490.864	597.64
491.32	594.84
491.776	593.34
492.233	591.64
492.689	570.04
493.145	563.94
493.602	548.94
494.058	558.34
494.514	563.54
494.97	579.04
495.426	572.64
495.882	562.94
496.338	559.64
496.794	558.54
497.251	556.94
497.707	564.54
498.163	574.64
498.618	568.84
499.074	578.24
499.53	597.04
499.986	590.94
500.442	579.34
500.898	556.34
501.354	562.14
501.809	556.14
502.265	559.24
502.721	569.04
503.177	576.04
503.632	584.74
504.088	586.14
504.543	606.04
504.999	607.34
505.455	594.14
505.91	584.94
506.366	591.14
506.821	571.94
507.277	570.04
507.732	578.84
508.187	573.94
508.643	584.94
509.098	582.04
509.553	604.14
510.009	607.84
510.464	614.74
510.919	621.94
511.375	626.14
511.83	634.64
512.285	649.44
512.74	671.94
513.195	686.54
513.65	680.54
514.105	689.24
514.56	684.84
515.015	698.94
515.47	709.94
515.925	694.64
516.38	699.54
516.835	714.24
517.29	704.44
517.745	694.64
518.2	692.74
518.655	665.34
519.109	670.84
519.564	652.34
520.019	641.74
520.474	643.54
520.928	643.64
521.383	634.34
521.838	627.44
522.292	629.94
522.747	634.54
523.201	624.04
523.656	624.44
524.11	618.14
524.565	615.44
525.019	612.74
525.474	622.24
525.928	621.94
526.382	606.34
526.837	621.14
527.291	622.04
527.745	615.04
528.2	610.24
528.654	596.94
529.108	615.14
529.562	606.04
530.016	605.44
530.47	600.64
530.925	594.24
531.379	600.14
531.833	604.34
532.287	610.74
532.741	596.84
533.195	597.04
533.649	615.04
534.103	617.44
534.556	596.34
535.01	613.64
535.464	604.54
535.918	617.74
536.372	618.24
536.826	614.14
537.279	604.94
537.733	614.04
538.187	607.84
538.64	614.24
539.094	622.94
539.548	638.84
540.001	614.74
540.455	616.44
540.908	632.04
541.362	631.24
541.815	638.34
542.269	653.84
542.722	653.44
543.175	657.34
543.629	656.34
544.082	664.04
544.536	674.54
544.989	666.04
545.442	678.44
545.895	672.74
546.349	681.44
546.802	669.24
547.255	670.44
547.708	695.14
548.161	687.04
548.614	694.24
549.067	710.14
549.52	693.94
549.973	693.14
550.426	688.34
550.879	676.64
551.332	672.24
551.785	683.84
552.238	678.54
552.691	687.24
553.144	706.84
553.596	708.14
554.049	712.84
554.502	743.94
554.955	754.84
555.407	753.14
555.86	738.34
556.313	739.94
556.765	723.04
557.218	730.84
557.67	724.84
558.123	729.64
558.576	729.24
559.028	725.74
559.48	728.44
559.933	724.64
560.385	703.44
560.838	671.64
561.29	649.04
561.742	657.94
562.195	641.94
562.647	639.74
563.099	638.64
563.551	646.04
564.004	644.04
564.456	631.04
564.908	620.94
565.36	613.54
565.812	596.94
566.264	592.24
566.716	582.64
567.168	579.94
567.62	573.74
568.072	567.74
568.524	573.84
568.976	560.14
569.428	554.64
569.88	554.64
570.332	558.54
570.784	549.74
571.235	552.84
571.687	560.44
572.139	568.24
572.59	569.54
573.042	571.74
573.494	575.34
573.945	561.74
574.397	544.44
574.849	550.34
575.3	555.24
575.752	550.94
576.203	549.14
576.655	548.84
577.106	538.44
577.557	531.14
578.009	532.94
578.46	527.54
578.912	525.54
579.363	529.54
579.814	526.74
580.265	523.94
580.717	532.44
581.168	527.44
581.619	536.34
582.07	532.44
582.521	529.64
582.972	532.04
583.423	523.04
583.875	523.04
584.326	536.84
584.777	548.14
585.227	564.84
585.678	574.04
586.129	595.54
586.58	613.94
587.031	625.24
587.482	653.64
587.933	682.84
588.384	658.94
588.834	625.14
589.285	610.04
589.736	615.94
590.186	601.24
590.637	607.74
591.088	587.14
591.538	582.14
591.989	569.34
592.439	562.04
592.89	557.34
593.34	542.54
593.791	540.64
594.241	525.94
594.692	544.44
595.142	539.24
595.593	533.94
596.043	543.34
596.493	536.24
596.943	533.84
597.394	549.44
597.844	552.94
598.294	566.54
598.744	576.84
599.195	603.24
599.645	617.74
600.095	657.64
600.545	697.14
600.995	728.04
601.445	783.84
601.895	838.64
602.345	878.94
602.795	856.54
603.245	822.94
603.695	780.04
604.145	739.54
604.594	712.34
605.044	663.24
605.494	613.64
605.944	583.04
606.393	571.34
606.843	546.64
607.293	557.24
607.743	549.34
608.192	550.94
608.642	561.14
609.091	574.34
609.541	570.84
609.99	571.14
610.44	567.74
610.889	540.64
611.339	522.94
611.788	517.74
612.238	515.24
612.687	526.04
613.136	523.84
613.586	533.44
614.035	520.94
614.484	531.44
614.933	525.44
615.383	527.84
615.832	535.64
616.281	514.04
616.73	500.84
617.179	489.44
617.628	482.54
618.077	470.84
618.526	459.24
618.975	463.14
619.424	455.24
619.873	455.14
620.322	467.24
620.771	452.84
621.22	446.14
621.669	441.24
622.118	445.34
622.567	429.94
623.015	416.94
623.464	422.74
623.913	419.04
624.361	410.64
624.81	408.34
625.259	403.84
625.707	411.74
626.156	407.64
626.604	422.24
627.053	421.04
627.501	418.74
627.95	418.14
628.398	427.24
628.847	418.94
629.295	425.34
629.744	415.54
630.192	412.54
630.64	415.54
631.089	401.84
631.537	390.04
631.985	388.94
632.433	385.44
632.881	385.24
633.33	385.24
633.778	379.94
634.226	381.04
634.674	388.24
635.122	391.34
635.57	400.24
636.018	410.04
636.466	409.04
636.914	402.04
637.362	415.74
637.81	409.64
638.258	422.44
638.705	425.44
639.153	440.64
639.601	445.44
640.049	463.74
640.497	493.14
640.944	509.44
641.392	476.54
641.84	444.44
642.287	416.54
642.735	402.34
643.182	407.84
643.63	403.74
644.078	400.74
644.525	416.54
644.973	412.24
645.42	420.44
645.867	444.14
646.315	451.04
646.762	462.94
647.21	486.44
647.657	490.34
648.104	520.64
648.551	532.84
648.999	577.84
649.446	620.44
649.893	680.94
650.34	773.54
650.787	902.24
651.234	1113.44
651.682	1417.94
652.129	1914.44
652.576	2674.04
653.023	3934.64
653.47	5447.04
653.917	6882.44
654.363	8061.84
654.81	9114.94
655.257	8670.84
655.704	5733.64
656.151	3403.44
656.598	2237.84
657.044	1601.04
657.491	1232.54
657.938	993.54
658.385	845.34
658.831	730.24
659.278	657.14
659.724	590.04
660.171	539.54
660.618	491.14
661.064	470.34
661.511	446.84
661.957	442.44
662.404	427.84
662.85	436.54
663.296	416.64
663.743	391.84
664.189	376.54
664.635	378.84
665.082	374.14
665.528	366.94
665.974	359.84
666.42	353.64
666.867	353.54
667.313	320.44
667.759	330.24
668.205	322.04
668.651	321.74
669.097	317.84
669.543	313.04
669.989	310.34
670.435	318.44
670.881	311.74
671.327	323.84
671.773	326.74
672.219	347.04
672.665	387.34
673.11	400.84
673.556	447.44
674.002	483.34
674.448	478.04
674.893	397.94
675.339	341.44
675.785	315.54
676.23	296.24
676.676	278.94
677.122	275.24
677.567	265.14
678.013	262.94
678.458	252.04
678.904	250.44
679.349	237.94
679.794	251.34
680.24	243.04
680.685	245.24
681.131	242.34
681.576	246.74
682.021	254.64
682.466	246.54
682.912	237.94
683.357	243.44
683.802	269.64
684.247	280.74
684.692	322.14
685.137	346.64
685.583	388.04
686.028	401.84
686.473	366.64
686.918	310.04
687.363	295.74
687.807	286.84
688.252	256.04
688.697	251.94
689.142	237.24
689.587	224.34
690.032	228.04
690.477	242.94
690.921	245.64
691.366	264.54
691.811	279.64
692.255	303.04
692.7	327.74
693.145	354.24
693.589	478.44
694.034	774.34
694.478	1080.94
694.923	1271.34
695.367	1690.54
695.812	882.34
696.256	359.04
696.701	259.94
697.145	243.04
697.59	234.24
698.034	224.24
698.478	230.74
698.922	225.84
699.367	222.34
699.811	235.44
700.255	246.24
700.699	263.34
701.143	284.74
701.588	334.34
702.032	364.34
702.476	360.64
702.92	347.84
703.364	348.44
703.808	432.24
704.252	706.44
704.696	1012.04
705.14	1215.34
705.584	1592.44
706.027	780.04
706.471	372.84
706.915	282.44
707.359	245.14
707.803	218.84
708.246	217.94
708.69	224.14
709.134	226.14
709.577	221.04
710.021	216.54
710.465	215.14
710.908	209.24
711.352	211.04
711.795	211.84
712.239	236.74
712.682	259.14
713.126	288.04
713.569	319.64
714.012	250.44
714.456	211.44
714.899	203.84
715.342	193.14
715.786	184.64
716.229	178.24
716.672	180.84
717.115	174.94
717.558	173.84
718.002	174.74
718.445	177.04
718.888	199.74
719.331	206.04
719.774	211.44
720.217	215.44
720.66	201.64
721.103	181.64
721.546	178.64
721.989	174.24
722.432	158.54
722.874	156.24
723.317	154.64
723.76	160.24
724.203	175.54
724.645	210.84
725.088	294.64
725.531	394.64
725.974	455.44
726.416	387.04
726.859	210.74
727.301	172.84
727.744	166.34
728.187	163.44
728.629	169.64
729.071	168.44
729.514	180.34
729.956	186.04
730.399	194.54
730.841	203.84
731.283	195.64
731.726	179.84
732.168	184.14
732.61	189.64
733.053	197.74
733.495	215.24
733.937	239.64
734.379	280.04
734.821	305.44
735.263	376.24
735.705	564.34
736.148	1072.24
736.59	1805.64
737.032	2286.54
737.474	1874.24
737.916	586.54
738.357	303.94
738.799	228.34
739.241	208.34
739.683	198.84
740.125	207.54
740.567	209.94
741.008	226.54
741.45	229.54
741.892	218.44
742.334	253.94
742.775	261.34
743.217	252.74
743.658	194.14
744.1	184.64
744.542	191.74
744.983	228.54
745.425	254.74
745.866	257.44
746.307	196.64
746.749	197.74
747.19	218.84
747.632	298.74
748.073	585.24
748.514	1268.84
748.956	2037.14
749.397	2570.74
749.838	2136.14
750.279	2231.24
750.72	1120.04
751.162	397.14
751.603	226.44
752.044	180.94
752.485	150.24
752.926	146.34
753.367	146.14
753.808	140.94
754.249	128.14
754.69	126.44
755.131	122.34
755.572	124.84
756.013	123.94
756.453	122.84
756.894	130.64
757.335	133.54
757.776	138.84
758.216	132.44
758.657	131.44
759.098	131.84
759.538	154.44
759.979	179.14
760.42	244.74
760.86	473.24
761.301	1236.54
761.741	3108.04
762.182	4938.64
762.622	3519.94
763.063	985.84
763.503	398.34
763.943	229.24
764.384	197.54
