Data from 20171114-ORNL-Ar_H_NY_Subt18_08-03-30-943.txt Node
Date: Tue Nov 14 08:03:30 EST 2017
User: Ender
Spectrometer: HR+D1039
Trigger mode: 0
Integration Time (sec): 2.730000E-2
Scans to average: 10
Electric dark correction enabled: true
Nonlinearity correction enabled: false
Boxcar width: 0
XAxis mode: Wavelengths
Number of Pixels in Spectrum: 2048
>>>>>Begin Spectral Data<<<<<
187.836	-2.51
188.309	-2.51
188.782	-2.51
189.255	5.09
189.728	-2.61
190.201	5.49
190.674	2.49
191.147	4.89
191.619	-9.41
192.092	-1.71
192.565	2.49
193.038	1.99
193.511	-0.01
193.984	0.19
194.456	-2.51
194.929	-1.81
195.402	-1.11
195.874	-1.01
196.347	-1.81
196.82	-4.51
197.292	3.99
197.765	-5.91
198.237	0.49
198.71	7.89
199.182	-2.51
199.655	-0.11
200.127	-4.01
200.6	-4.91
201.072	-3.61
201.544	-0.91
202.017	-7.11
202.489	7.79
202.961	-0.41
203.433	-1.01
203.906	-7.51
204.378	-7.71
204.85	-0.61
205.322	-8.91
205.794	-1.01
206.266	-4.11
206.739	-11.51
207.211	-5.01
207.683	-6.41
208.155	-3.21
208.627	-5.71
209.099	-0.81
209.57	-9.61
210.042	-4.21
210.514	-3.31
210.986	-1.31
211.458	-7.21
211.93	-3.51
212.402	1.29
212.873	-8.01
213.345	-9.51
213.817	-10.41
214.288	-9.81
214.76	-11.31
215.232	-5.51
215.703	0.79
216.175	-0.41
216.646	-2.41
217.118	-6.61
217.589	-6.41
218.061	-5.91
218.532	-5.61
219.004	-8.81
219.475	-7.41
219.946	-5.01
220.418	-6.11
220.889	0.69
221.36	-4.91
221.832	-2.01
222.303	-7.51
222.774	-2.01
223.245	-6.31
223.717	-9.11
224.188	-7.31
224.659	-4.71
225.13	-6.11
225.601	-3.61
226.072	-0.01
226.543	-8.41
227.014	0.29
227.485	-2.91
227.956	-4.01
228.427	-3.61
228.898	0.29
229.369	-0.11
229.839	-7.81
230.31	-9.01
230.781	0.99
231.252	-1.11
231.722	-7.21
232.193	-0.41
232.664	-3.41
233.135	-6.91
233.605	-8.41
234.076	-8.61
234.546	-4.91
235.017	3.19
235.487	-4.31
235.958	-9.51
236.428	-4.81
236.899	-1.61
237.369	-1.21
237.84	-4.41
238.31	-4.91
238.78	-4.71
239.251	-13.01
239.721	0.19
240.191	-8.61
240.662	-7.41
241.132	-2.81
241.602	-3.31
242.072	-6.61
242.542	1.09
243.013	-9.71
243.483	-2.21
243.953	-2.41
244.423	-4.11
244.893	-7.01
245.363	0.99
245.833	-3.61
246.303	-6.81
246.773	5.09
247.243	-1.21
247.712	-2.91
248.182	0.09
248.652	1.89
249.122	-17.81
249.592	-7.61
250.061	0.89
250.531	4.19
251.001	-7.11
251.471	-1.71
251.94	2.19
252.41	-2.61
252.879	-5.11
253.349	3.19
253.818	2.19
254.288	-1.41
254.757	-4.81
255.227	-6.11
255.696	-5.81
256.166	0.29
256.635	-2.91
257.105	3.19
257.574	0.09
258.043	0.19
258.513	-12.71
258.982	-3.01
259.451	-8.51
259.92	-7.51
260.389	-2.41
260.859	1.19
261.328	-7.31
261.797	-1.11
262.266	-1.91
262.735	5.89
263.204	-1.41
263.673	-7.01
264.142	-3.31
264.611	-4.41
265.08	-4.81
265.549	-8.11
266.018	-1.31
266.487	-12.31
266.955	-9.01
267.424	-11.01
267.893	-2.51
268.362	-6.01
268.83	-8.21
269.299	-0.01
269.768	-5.91
270.236	-8.11
270.705	-6.91
271.174	-8.81
271.642	-6.61
272.111	-1.61
272.579	-2.91
273.048	-9.11
273.516	-6.91
273.985	-1.41
274.453	-2.21
274.922	1.59
275.39	-5.21
275.858	-13.11
276.327	-4.71
276.795	7.99
277.263	-3.31
277.731	-0.01
278.2	0.39
278.668	-3.41
279.136	-6.71
279.604	-6.51
280.072	-0.41
280.54	2.99
281.008	0.69
281.477	2.39
281.945	-4.81
282.413	1.49
282.881	3.09
283.348	-7.11
283.816	-0.11
284.284	2.49
284.752	4.99
285.22	-6.21
285.688	-2.91
286.156	-5.21
286.623	5.19
287.091	-4.91
287.559	-1.41
288.026	-3.21
288.494	-3.21
288.962	-15.41
289.429	-9.31
289.897	1.29
290.364	-2.61
290.832	-1.81
291.3	-2.91
291.767	1.29
292.234	0.29
292.702	-11.51
293.169	-4.41
293.637	3.89
294.104	-4.01
294.571	-14.91
295.039	-9.81
295.506	-5.21
295.973	-2.41
296.44	-4.51
296.908	-4.81
297.375	-6.51
297.842	-6.61
298.309	-5.51
298.776	-12.81
299.243	-9.11
299.71	-9.51
300.177	2.09
300.644	-4.61
301.111	-5.31
301.578	-6.21
302.045	-9.11
302.512	-1.01
302.979	-0.11
303.446	-3.01
303.913	-7.41
304.379	-9.71
304.846	-0.61
305.313	-2.41
305.78	-2.51
306.246	-5.11
306.713	-4.91
307.18	-3.31
307.646	-1.51
308.113	-4.91
308.579	-2.21
309.046	-1.41
309.512	-1.41
309.979	-9.71
310.445	-0.61
310.912	-6.11
311.378	0.29
311.845	-2.51
312.311	-4.01
312.777	-3.31
313.244	-3.41
313.71	7.19
314.176	-1.11
314.642	-8.01
315.109	-8.01
315.575	-3.41
316.041	-2.21
316.507	-10.91
316.973	-5.91
317.439	-7.31
317.905	-2.91
318.371	-0.11
318.837	-1.31
319.303	-4.51
319.769	-5.11
320.235	-3.81
320.701	-4.91
321.167	-2.51
321.633	-7.51
322.099	-1.21
322.564	-1.51
323.03	-0.71
323.496	-3.11
323.962	-2.81
324.427	0.49
324.893	7.39
325.359	3.39
325.824	0.19
326.29	-5.91
326.755	-3.91
327.221	-2.81
327.686	-5.31
328.152	-0.71
328.617	-4.41
329.083	1.29
329.548	2.49
330.014	1.59
330.479	-8.51
330.944	-4.11
331.41	-1.91
331.875	-4.81
332.34	-2.81
332.805	-6.21
333.271	-3.01
333.736	-13.21
334.201	-2.51
334.666	-1.01
335.131	-1.21
335.596	4.99
336.061	-0.61
336.526	-14.61
336.991	-2.71
337.456	4.59
337.921	4.49
338.386	-4.81
338.851	-0.91
339.316	-1.81
339.781	-5.51
340.246	-0.21
340.711	-7.61
341.175	-1.31
341.64	-12.21
342.105	0.59
342.569	0.29
343.034	4.79
343.499	-3.21
343.963	-9.21
344.428	2.69
344.893	-1.71
345.357	-6.71
345.822	0.69
346.286	1.09
346.751	-6.21
347.215	-3.51
347.679	-11.51
348.144	2.29
348.608	1.99
349.073	-1.41
349.537	-0.61
350.001	-7.91
350.465	2.79
350.93	-6.31
351.394	-4.21
351.858	-6.31
352.322	3.69
352.786	-4.51
353.25	3.59
353.715	6.59
354.179	-8.71
354.643	-2.71
355.107	-5.21
355.571	4.59
356.035	-4.41
356.498	2.29
356.962	-7.11
357.426	-0.61
357.89	-3.61
358.354	-1.01
358.818	7.19
359.281	-0.81
359.745	-5.11
360.209	-5.31
360.673	-9.21
361.136	-6.61
361.6	5.29
362.064	-1.51
362.527	-3.01
362.991	6.09
363.454	-7.11
363.918	-10.51
364.381	-4.91
364.845	0.29
365.308	-2.31
365.772	3.59
366.235	-0.01
366.698	-2.81
367.162	-4.01
367.625	-1.51
368.088	-2.51
368.552	1.79
369.015	-2.41
369.478	-0.01
369.941	2.29
370.404	-6.31
370.867	-0.21
371.331	2.49
371.794	-2.31
372.257	-4.21
372.72	6.49
373.183	1.59
373.646	-6.21
374.109	-6.01
374.572	-2.51
375.035	-2.81
375.497	-5.41
375.96	-3.01
376.423	-1.21
376.886	4.59
377.349	-1.41
377.811	-4.61
378.274	0.19
378.737	-3.01
379.199	3.09
379.662	-4.41
380.125	1.89
380.587	-7.51
381.05	-6.41
381.512	-2.01
381.975	9.79
382.437	1.79
382.9	-3.91
383.362	3.89
383.825	-4.41
384.287	-3.71
384.75	-5.61
385.212	-0.31
385.674	7.79
386.136	-2.81
386.599	-0.51
387.061	-0.81
387.523	-5.81
387.985	0.89
388.447	11.19
388.91	-1.11
389.372	1.49
389.834	2.49
390.296	-7.71
390.758	2.89
391.22	0.19
391.682	-2.41
392.144	8.19
392.606	3.79
393.068	5.69
393.529	6.59
393.991	-5.81
394.453	-0.71
394.915	-2.11
395.377	1.39
395.838	1.79
396.3	-0.11
396.762	8.19
397.224	0.39
397.685	-0.11
398.147	-3.21
398.608	-1.81
399.07	-7.41
399.531	-7.41
399.993	-0.91
400.454	5.29
400.916	5.69
401.377	-2.01
401.839	3.59
402.3	-5.41
402.762	1.09
403.223	5.19
403.684	0.29
404.145	-0.01
404.607	-2.61
405.068	3.29
405.529	-4.11
405.99	4.49
406.451	-9.11
406.913	4.29
407.374	1.39
407.835	-3.21
408.296	1.89
408.757	-0.21
409.218	2.09
409.679	1.19
410.14	1.89
410.601	5.69
411.062	9.19
411.522	-0.51
411.983	0.19
412.444	-7.81
412.905	1.59
413.366	-5.11
413.826	0.49
414.287	0.99
414.748	9.19
415.208	1.89
415.669	2.09
416.13	6.59
416.59	3.29
417.051	7.69
417.511	12.39
417.972	6.89
418.432	-1.71
418.893	15.29
419.353	13.29
419.814	2.99
420.274	2.89
420.734	-2.31
421.195	4.09
421.655	-0.51
422.115	-0.91
422.576	6.89
423.036	6.09
423.496	4.19
423.956	8.19
424.416	7.89
424.876	6.09
425.336	3.29
425.797	10.29
426.257	11.89
426.717	0.89
427.177	11.59
427.637	3.79
428.097	2.99
428.556	0.19
429.016	3.79
429.476	-3.41
429.936	4.49
430.396	0.39
430.856	2.59
431.315	5.69
431.775	6.69
432.235	13.19
432.694	-1.81
433.154	14.99
433.614	8.09
434.073	4.09
434.533	4.19
434.993	2.49
435.452	8.29
435.912	4.29
436.371	7.69
436.83	2.59
437.29	5.89
437.749	5.49
438.209	2.19
438.668	1.29
439.127	3.89
439.587	5.59
440.046	2.49
440.505	5.59
440.964	3.59
441.424	1.09
441.883	0.49
442.342	10.19
442.801	-1.21
443.26	5.79
443.719	2.99
444.178	1.09
444.637	-5.91
445.096	-0.81
445.555	6.49
446.014	4.19
446.473	9.29
446.932	5.89
447.391	-4.41
447.849	-0.81
448.308	-2.31
448.767	-6.01
449.226	8.59
449.685	11.89
450.143	12.79
450.602	2.79
451.061	-1.81
451.519	4.09
451.978	-3.01
452.436	2.19
452.895	-6.01
453.353	-5.51
453.812	9.09
454.27	11.49
454.729	7.79
455.187	1.09
455.646	5.69
456.104	8.89
456.562	0.89
457.021	1.09
457.479	9.69
457.937	5.99
458.395	3.59
458.854	-2.81
459.312	5.39
459.77	-1.51
460.228	4.89
460.686	-3.31
461.144	12.59
461.602	2.19
462.06	-0.61
462.518	7.69
462.976	0.79
463.434	4.19
463.892	1.99
464.35	3.49
464.808	11.19
465.266	-0.81
465.724	4.59
466.181	4.59
466.639	0.29
467.097	7.59
467.555	5.99
468.012	9.59
468.47	-2.21
468.928	8.89
469.385	7.89
469.843	9.19
470.3	8.19
470.758	4.29
471.215	-2.41
471.673	6.69
472.13	11.09
472.588	9.89
473.045	0.69
473.503	7.79
473.96	1.29
474.417	4.49
474.875	4.59
475.332	8.59
475.789	6.79
476.246	6.69
476.704	9.59
477.161	4.39
477.618	1.59
478.075	13.59
478.532	9.89
478.989	5.59
479.446	13.89
479.903	16.79
480.36	12.99
480.817	0.09
481.274	13.69
481.731	9.49
482.188	7.89
482.645	12.99
483.102	14.49
483.558	9.69
484.015	15.79
484.472	15.19
484.929	13.59
485.385	10.39
485.842	17.59
486.299	15.19
486.755	17.69
487.212	15.09
487.668	8.29
488.125	14.09
488.582	14.29
489.038	11.19
489.494	6.39
489.951	5.19
490.407	13.69
490.864	8.69
491.32	16.19
491.776	5.69
492.233	10.69
492.689	2.09
493.145	13.49
493.602	11.09
494.058	13.89
494.514	8.89
494.97	20.49
495.426	13.79
495.882	14.89
496.338	8.89
496.794	15.29
497.251	3.69
497.707	13.59
498.163	8.89
498.618	13.79
499.074	7.69
499.53	14.79
499.986	10.39
500.442	12.79
500.898	1.19
501.354	6.19
501.809	13.19
502.265	13.69
502.721	11.49
503.177	14.09
503.632	16.29
504.088	16.19
504.543	20.49
504.999	13.09
505.455	10.49
505.91	7.99
506.366	8.99
506.821	4.09
507.277	9.09
507.732	11.69
508.187	8.09
508.643	10.59
509.098	4.39
509.553	9.69
510.009	20.99
510.464	6.59
510.919	9.89
511.375	14.69
511.83	21.59
512.285	15.19
512.74	20.39
513.195	23.59
513.65	12.79
514.105	15.49
514.56	21.29
515.015	17.49
515.47	18.39
515.925	14.79
516.38	15.29
516.835	24.19
517.29	20.69
517.745	13.19
518.2	12.79
518.655	17.19
519.109	15.39
519.564	17.79
520.019	6.89
520.474	9.89
520.928	12.99
521.383	11.69
521.838	9.59
522.292	13.59
522.747	17.69
523.201	15.39
523.656	11.89
524.11	14.49
524.565	12.69
525.019	1.29
525.474	11.89
525.928	11.89
526.382	10.79
526.837	10.49
527.291	10.19
527.745	14.89
528.2	10.89
528.654	10.39
529.108	10.19
529.562	4.59
530.016	10.49
530.47	8.99
530.925	6.39
531.379	17.89
531.833	13.49
532.287	10.59
532.741	3.69
533.195	7.19
533.649	10.79
534.103	17.89
534.556	3.79
535.01	4.09
535.464	2.29
535.918	14.99
536.372	11.19
536.826	11.89
537.279	8.99
537.733	11.29
538.187	10.19
538.64	13.69
539.094	14.59
539.548	8.89
540.001	7.09
540.455	9.29
540.908	8.59
541.362	12.49
541.815	20.59
542.269	15.89
542.722	3.89
543.175	8.79
543.629	12.59
544.082	18.79
544.536	9.19
544.989	3.99
545.442	14.29
545.895	17.09
546.349	17.09
546.802	12.19
547.255	15.19
547.708	14.99
548.161	10.59
548.614	15.69
549.067	23.59
549.52	13.09
549.973	17.09
550.426	12.19
550.879	5.89
551.332	13.09
551.785	16.19
552.238	7.29
552.691	10.69
553.144	15.99
553.596	13.09
554.049	9.49
554.502	14.69
554.955	21.99
555.407	14.69
555.86	7.99
556.313	15.19
556.765	16.19
557.218	19.49
557.67	15.59
558.123	15.79
558.576	12.69
559.028	18.29
559.48	15.59
559.933	12.29
560.385	8.79
560.838	16.59
561.29	13.59
561.742	9.69
562.195	8.79
562.647	7.79
563.099	13.39
563.551	16.49
564.004	12.39
564.456	18.69
564.908	6.19
565.36	6.69
565.812	7.19
566.264	8.39
566.716	11.19
567.168	7.39
567.62	13.89
568.072	9.89
568.524	8.89
568.976	13.59
569.428	9.09
569.88	5.29
570.332	7.79
570.784	7.89
571.235	11.09
571.687	13.39
572.139	10.49
572.59	16.09
573.042	8.19
573.494	1.69
573.945	18.49
574.397	6.89
574.849	8.49
575.3	6.19
575.752	8.99
576.203	11.89
576.655	10.39
577.106	-1.81
577.557	10.29
578.009	10.59
578.46	10.49
578.912	13.89
579.363	5.09
579.814	4.09
580.265	1.69
580.717	6.19
581.168	5.69
581.619	9.49
582.07	12.19
582.521	5.19
582.972	5.29
583.423	9.49
583.875	3.69
584.326	12.59
584.777	7.39
585.227	12.39
585.678	5.39
586.129	4.89
586.58	14.19
587.031	9.99
587.482	16.29
587.933	17.59
588.384	7.29
588.834	14.39
589.285	10.29
589.736	15.89
590.186	10.69
590.637	14.49
591.088	12.09
591.538	11.79
591.989	16.09
592.439	14.79
592.89	8.89
593.34	2.99
593.791	9.59
594.241	5.19
594.692	9.19
595.142	8.19
595.593	8.19
596.043	12.49
596.493	6.79
596.943	12.29
597.394	6.59
597.844	0.09
598.294	6.09
598.744	17.89
599.195	7.79
599.645	5.99
600.095	6.59
600.545	15.19
600.995	17.59
601.445	32.89
601.895	29.59
602.345	35.89
602.795	22.69
603.245	16.99
603.695	14.49
604.145	11.09
604.594	8.69
605.044	9.59
605.494	7.89
605.944	-2.21
606.393	11.29
606.843	8.19
607.293	6.49
607.743	7.29
608.192	3.99
608.642	18.39
609.091	11.39
609.541	16.09
609.99	11.19
610.44	15.09
610.889	4.89
611.339	5.19
611.788	6.89
612.238	6.99
612.687	13.79
613.136	12.79
613.586	6.69
614.035	3.29
614.484	3.99
614.933	8.29
615.383	10.29
615.832	9.69
616.281	13.39
616.73	13.69
617.179	11.89
617.628	14.59
618.077	5.59
618.526	1.39
618.975	3.39
619.424	14.49
619.873	7.59
620.322	10.89
620.771	4.89
621.22	8.29
621.669	5.49
622.118	2.99
622.567	9.49
623.015	2.79
623.464	8.19
623.913	3.29
624.361	-3.31
624.81	1.09
625.259	-0.41
625.707	7.59
626.156	3.09
626.604	16.99
627.053	10.19
627.501	-3.71
627.95	-1.91
628.398	3.59
628.847	0.99
629.295	-0.61
629.744	6.79
630.192	10.19
630.64	7.09
631.089	8.99
631.537	10.29
631.985	-1.31
632.433	3.59
632.881	5.99
633.33	4.79
633.778	-3.41
634.226	-3.81
634.674	8.59
635.122	4.49
635.57	3.39
636.018	5.79
636.466	11.69
636.914	8.49
637.362	9.09
637.81	10.99
638.258	10.29
638.705	4.19
639.153	7.89
639.601	2.49
640.049	3.19
640.497	10.19
640.944	18.79
641.392	0.89
641.84	4.59
642.287	8.29
642.735	-2.61
643.182	2.09
643.63	6.39
644.078	2.29
644.525	3.19
644.973	-0.51
645.42	3.89
645.867	5.29
646.315	6.49
646.762	3.69
647.21	5.29
647.657	2.09
648.104	8.59
648.551	2.69
648.999	0.79
649.446	8.49
649.893	0.69
650.34	-0.31
650.787	-0.61
651.234	11.79
651.682	7.89
652.129	-2.31
652.576	-2.71
653.023	8.59
653.47	13.09
653.917	3.79
654.363	10.99
654.81	6.79
655.257	2.49
655.704	8.39
656.151	1.39
656.598	0.79
657.044	3.29
657.491	4.49
657.938	2.09
658.385	0.59
658.831	2.99
659.278	17.09
659.724	0.79
660.171	7.19
660.618	0.79
661.064	7.59
661.511	0.59
661.957	4.69
662.404	4.79
662.85	11.19
663.296	8.39
663.743	5.99
664.189	6.39
664.635	2.99
665.082	2.39
665.528	3.79
665.974	1.59
666.42	-0.91
666.867	3.79
667.313	0.39
667.759	8.69
668.205	3.09
668.651	1.49
669.097	0.29
669.543	-3.31
669.989	2.19
670.435	1.09
670.881	-5.41
671.327	2.89
671.773	6.09
672.219	4.69
672.665	9.49
673.11	5.29
673.556	14.29
674.002	13.59
674.448	3.19
674.893	8.29
675.339	7.29
675.785	9.89
676.23	10.29
676.676	-2.71
677.122	-3.61
677.567	1.69
678.013	7.69
678.458	3.19
678.904	3.09
679.349	-2.31
679.794	4.49
680.24	2.39
680.685	2.29
681.131	1.49
681.576	2.59
682.021	4.29
682.466	1.49
682.912	3.49
683.357	-7.81
683.802	3.29
684.247	6.49
684.692	9.09
685.137	2.19
685.583	9.49
686.028	6.99
686.473	2.69
686.918	5.69
687.363	8.19
687.807	7.09
688.252	2.49
688.697	5.29
689.142	9.39
689.587	-0.61
690.032	-3.11
690.477	1.09
690.921	1.59
691.366	1.89
691.811	-3.51
692.255	0.89
692.7	9.39
693.145	7.09
693.589	16.59
694.034	28.59
694.478	52.19
694.923	64.59
695.367	83.69
695.812	34.89
696.256	8.09
696.701	-2.61
697.145	4.39
697.59	-2.91
698.034	0.99
698.478	7.39
698.922	-2.01
699.367	1.79
699.811	10.79
700.255	6.99
700.699	14.39
701.143	3.69
701.588	7.19
702.032	20.99
702.476	6.19
702.92	9.09
703.364	2.39
703.808	11.19
704.252	32.09
704.696	45.49
705.14	58.89
705.584	82.89
706.027	29.09
706.471	4.09
706.915	-0.31
707.359	-0.81
707.803	-5.31
708.246	-3.21
708.69	3.89
709.134	11.29
709.577	1.09
710.021	5.29
710.465	2.89
710.908	2.89
711.352	-3.01
711.795	-0.11
712.239	4.59
712.682	-4.21
713.126	8.79
713.569	9.39
714.012	10.69
714.456	4.29
714.899	-1.81
715.342	-4.51
715.786	-3.91
716.229	-1.11
716.672	2.49
717.115	-2.11
717.558	0.69
718.002	1.99
718.445	0.99
718.888	7.39
719.331	4.49
719.774	5.39
720.217	-0.81
720.66	2.89
721.103	-0.31
721.546	-0.31
721.989	3.89
722.432	-5.11
722.874	6.19
723.317	-1.31
723.76	-3.71
724.203	1.69
724.645	6.39
725.088	8.19
725.531	9.49
725.974	14.79
726.416	14.39
726.859	6.99
727.301	-3.61
727.744	1.69
728.187	0.49
728.629	8.19
729.071	-0.51
729.514	4.89
729.956	2.09
730.399	-0.51
730.841	2.29
731.283	-2.21
731.726	1.79
732.168	3.79
732.61	-1.61
733.053	5.19
733.495	5.09
733.937	1.09
734.379	5.59
734.821	2.29
735.263	0.59
735.705	18.59
736.148	47.29
736.59	83.09
737.032	100.79
737.474	87.99
737.916	14.49
738.357	6.09
738.799	5.79
739.241	-1.51
739.683	-1.41
740.125	5.59
740.567	4.09
741.008	4.29
741.45	5.29
741.892	9.29
742.334	15.89
742.775	4.19
743.217	1.99
743.658	-1.31
744.1	-5.01
744.542	-7.21
744.983	4.89
745.425	1.09
745.866	2.19
746.307	8.29
746.749	4.59
747.19	8.49
747.632	6.49
748.073	16.09
748.514	68.39
748.956	104.59
749.397	127.09
749.838	107.99
750.279	118.49
750.72	37.29
751.162	11.89
751.603	2.89
752.044	1.29
752.485	-8.71
752.926	-1.11
753.367	5.79
753.808	0.29
754.249	-2.51
754.69	-4.11
755.131	1.59
755.572	0.29
756.013	-2.11
756.453	-3.61
756.894	3.79
757.335	4.29
757.776	2.99
758.216	3.99
758.657	-0.11
759.098	-7.91
759.538	3.99
759.979	-3.11
760.42	0.69
760.86	7.19
761.301	52.89
761.741	142.09
762.182	222.79
762.622	145.79
763.063	25.49
763.503	1.29
763.943	-3.01
764.384	6.19
764.824	1.59
765.264	-4.61
765.705	3.49
766.145	-6.01
766.585	-8.41
767.025	-7.61
767.465	-7.51
767.906	1.09
768.346	5.29
768.786	0.09
769.226	-5.91
769.666	4.69
770.106	14.09
770.546	52.79
770.986	103.39
771.426	87.99
771.866	26.89
772.306	-1.01
772.745	-2.21
773.185	-0.71
773.625	7.59
774.065	-4.11
774.505	2.19
774.944	-1.81
775.384	-0.11
775.824	6.59
776.263	2.29
776.703	-9.21
777.142	-4.11
777.582	1.39
778.021	-5.31
778.461	-1.41
778.9	-1.81
779.34	2.69
779.779	-5.01
780.219	-6.31
780.658	-4.41
781.097	-6.71
781.537	1.89
781.976	-7.51
782.415	-2.21
782.855	-5.31
783.294	-3.91
783.733	0.79
784.172	-1.21
784.611	-3.41
785.05	-1.31
785.489	-4.11
785.928	7.39
786.367	9.39
786.806	1.09
787.245	3.79
787.684	-8.81
788.123	2.69
788.562	1.89
789.001	-0.51
789.44	-7.41
789.879	-4.91
790.317	-4.41
790.756	0.69
791.195	-8.21
791.634	1.69
792.072	6.49
792.511	7.29
792.95	35.59
793.388	74.29
793.827	73.29
794.265	14.39
794.704	0.69
795.142	0.09
795.581	1.49
796.019	0.59
796.458	-3.91
796.896	-7.11
797.334	0.29
797.773	4.39
798.211	9.79
798.649	16.59
799.087	38.29
799.526	56.09
799.964	74.09
800.402	82.59
800.84	23.49
801.278	5.09
801.716	4.69
802.154	7.39
802.592	0.39
803.03	-3.91
803.468	-9.91
803.906	-2.41
804.344	7.49
804.782	-1.31
