Data from 20171114-ORNL-Ar_H_NY_Subt18_08-03-51-143.txt Node
Date: Tue Nov 14 08:03:51 EST 2017
User: Ender
Spectrometer: HR+D1039
Trigger mode: 0
Integration Time (sec): 2.730000E-2
Scans to average: 10
Electric dark correction enabled: true
Nonlinearity correction enabled: false
Boxcar width: 0
XAxis mode: Wavelengths
Number of Pixels in Spectrum: 2048
>>>>>Begin Spectral Data<<<<<
187.836	-2.6
188.309	-2.6
188.782	-2.6
189.255	-0.8
189.728	2.2
190.201	5.7
190.674	4.5
191.147	2.3
191.619	-7
192.092	-4.4
192.565	8.6
193.038	5.6
193.511	0.2
193.984	-3.7
194.456	-7.3
194.929	1.7
195.402	-3.9
195.874	-1.1
196.347	-3.6
196.82	-3.8
197.292	7
197.765	-0.7
198.237	-6.4
198.71	-2.6
199.182	-1.2
199.655	3.3
200.127	4.6
200.6	-9.6
201.072	-4.9
201.544	-4.4
202.017	-4.8
202.489	0.6
202.961	-1.7
203.433	1
203.906	-6.1
204.378	-6.1
204.85	2
205.322	-8.6
205.794	-4
206.266	-5.3
206.739	-8.5
207.211	-5.2
207.683	-7.9
208.155	1
208.627	-2
209.099	3.4
209.57	-8.9
210.042	-4.2
210.514	1.6
210.986	-0.2
211.458	-10.8
211.93	-0.2
212.402	1.4
212.873	-3.4
213.345	-10.2
213.817	-13
214.288	-12.2
214.76	-6.7
215.232	-2.4
215.703	-2.7
216.175	-2.6
216.646	-4.5
217.118	-7.7
217.589	-3.4
218.061	-2.9
218.532	-1.5
219.004	0.1
219.475	-4.6
219.946	1.6
220.418	-5.7
220.889	5.3
221.36	4
221.832	-3.8
222.303	-5.2
222.774	-2.5
223.245	-9
223.717	0.6
224.188	-6.9
224.659	-5.9
225.13	-6
225.601	-7.4
226.072	-0.9
226.543	-6.8
227.014	-4.9
227.485	-3.8
227.956	-8.7
228.427	-0.9
228.898	-3.3
229.369	0.4
229.839	-6.9
230.31	-5.4
230.781	2.8
231.252	-6.3
231.722	-6.9
232.193	0.3
232.664	1.3
233.135	-1.5
233.605	0.3
234.076	-4
234.546	-2.7
235.017	5.2
235.487	-0.4
235.958	1.3
236.428	-5.1
236.899	-0.4
237.369	4.6
237.84	-1.3
238.31	-2.3
238.78	-4.6
239.251	-2
239.721	-2
240.191	2.4
240.662	-1.1
241.132	-0.1
241.602	-3.2
242.072	-6
242.542	2.5
243.013	-2.7
243.483	1.4
243.953	2.3
244.423	0.4
244.893	-4
245.363	-2.8
245.833	-1.8
246.303	-3.4
246.773	3.7
247.243	-5.2
247.712	0.1
248.182	5.3
248.652	0.7
249.122	-6.6
249.592	-2.8
250.061	5.3
250.531	9.7
251.001	2.3
251.471	-0.4
251.94	7.3
252.41	2.5
252.879	-8.7
253.349	10.2
253.818	8.2
254.288	3
254.757	-0.9
255.227	-2.9
255.696	-4.1
256.166	-1.2
256.635	0.3
257.105	-2.5
257.574	-3.6
258.043	2.2
258.513	-4
258.982	6.9
259.451	-6.2
259.92	1.3
260.389	-0.4
260.859	6.8
261.328	5.1
261.797	1.1
262.266	3.8
262.735	0.3
263.204	5.5
263.673	-3
264.142	5.6
264.611	-8.4
265.08	0.3
265.549	-0.8
266.018	5.4
266.487	1.6
266.955	-6.6
267.424	-2.8
267.893	1.3
268.362	-0.7
268.83	3.7
269.299	4.5
269.768	7.5
270.236	5.1
270.705	-5.2
271.174	5.4
271.642	1.8
272.111	1.6
272.579	9.2
273.048	0.1
273.516	3.2
273.985	6.5
274.453	7.4
274.922	8
275.39	6.9
275.858	-1
276.327	4.3
276.795	12.6
277.263	2.6
277.731	14
278.2	13
278.668	13.9
279.136	16.3
279.604	-1.8
280.072	8
280.54	8.7
281.008	1.9
281.477	13.3
281.945	9.1
282.413	11.5
282.881	5.1
283.348	1.5
283.816	6.1
284.284	6.2
284.752	12.8
285.22	6.6
285.688	9.9
286.156	7.8
286.623	17.8
287.091	14.5
287.559	8.5
288.026	9
288.494	12.3
288.962	-2.4
289.429	0.2
289.897	11
290.364	5.3
290.832	9.6
291.3	5.1
291.767	4
292.234	6.1
292.702	8.2
293.169	9.5
293.637	14.8
294.104	11.1
294.571	0.8
295.039	7.9
295.506	8.9
295.973	12.9
296.44	7.2
296.908	5.6
297.375	4.8
297.842	9.7
298.309	9
298.776	8.8
299.243	12.4
299.71	6.7
300.177	12.3
300.644	14.7
301.111	14.9
301.578	14.7
302.045	10.8
302.512	17.9
302.979	18.3
303.446	11.9
303.913	13.7
304.379	4.8
304.846	18.1
305.313	16.3
305.78	10.5
306.246	21.6
306.713	17.7
307.18	19.2
307.646	18.9
308.113	16.2
308.579	11.3
309.046	19.2
309.512	23.8
309.979	13.8
310.445	18.9
310.912	18.4
311.378	28.1
311.845	22.8
312.311	22
312.777	18.2
313.244	19.2
313.71	30.2
314.176	16.2
314.642	21.1
315.109	24.1
315.575	23
316.041	25.5
316.507	18.2
316.973	27.9
317.439	25.1
317.905	34.7
318.371	27.2
318.837	28.7
319.303	23.8
319.769	30.5
320.235	25.1
320.701	23
321.167	24.5
321.633	21.1
322.099	26.6
322.564	32.2
323.03	30.7
323.496	29
323.962	28.6
324.427	23.8
324.893	34.6
325.359	30.9
325.824	34.1
326.29	22.3
326.755	23.6
327.221	36.6
327.686	26.9
328.152	39.2
328.617	34
329.083	40.2
329.548	38.3
330.014	42.1
330.479	38.3
330.944	33.5
331.41	32.6
331.875	36.9
332.34	38.8
332.805	29.4
333.271	42
333.736	29.7
334.201	40.5
334.666	43.5
335.131	43.8
335.596	41.6
336.061	46.4
336.526	34.7
336.991	42.9
337.456	46.8
337.921	43
338.386	31.3
338.851	39.2
339.316	40.3
339.781	41.2
340.246	45.2
340.711	37.6
341.175	45.5
341.64	42.4
342.105	45.2
342.569	43.9
343.034	47.5
343.499	43.9
343.963	42.8
344.428	57.8
344.893	50.9
345.357	47.3
345.822	50.6
346.286	57.6
346.751	56.6
347.215	62.3
347.679	60.9
348.144	72.1
348.608	67.3
349.073	60.7
349.537	57.3
350.001	68.5
350.465	71.5
350.93	77.1
351.394	75.5
351.858	65.6
352.322	72.3
352.786	70.1
353.25	84.4
353.715	89
354.179	85
354.643	91.3
355.107	95.5
355.571	83.8
356.035	81.6
356.498	92.7
356.962	88.7
357.426	106.1
357.89	88.4
358.354	82.1
358.818	73
359.281	75.2
359.745	64.5
360.209	69.9
360.673	68.4
361.136	73.4
361.6	82.1
362.064	75.2
362.527	70.9
362.991	86.1
363.454	75.7
363.918	74.3
364.381	67.8
364.845	72.9
365.308	80.1
365.772	80.5
366.235	84.3
366.698	77.5
367.162	81
367.625	77.1
368.088	78.7
368.552	80.2
369.015	81.4
369.478	88.3
369.941	89.8
370.404	86
370.867	89.9
371.331	101.5
371.794	102.4
372.257	94.4
372.72	102.8
373.183	97.3
373.646	90.9
374.109	93
374.572	95.5
375.035	98.3
375.497	95.4
375.96	104.5
376.423	99.8
376.886	101.6
377.349	103.5
377.811	94.4
378.274	99.5
378.737	97.6
379.199	108.2
379.662	104.3
380.125	107.5
380.587	110.4
381.05	112
381.512	113
381.975	121
382.437	118
382.9	115.3
383.362	121
383.825	131.9
384.287	126.2
384.75	122.8
385.212	119.3
385.674	124.5
386.136	126.9
386.599	121
387.061	122.3
387.523	119.4
387.985	125.9
388.447	133.1
388.91	121.3
389.372	127
389.834	131.6
390.296	123.7
390.758	134.8
391.22	140.7
391.682	152.1
392.144	178.3
392.606	159.8
393.068	141.9
393.529	144.1
393.991	143.3
394.453	135.9
394.915	140.3
395.377	147.3
395.838	153.1
396.3	133.1
396.762	137.3
397.224	136.2
397.685	126.8
398.147	130.9
398.608	128.5
399.07	130.9
399.531	143.6
399.993	135
400.454	155
400.916	141.7
401.377	143.5
401.839	153.4
402.3	150
402.762	168.6
403.223	177.1
403.684	174.6
404.145	163.2
404.607	159.9
405.068	163.6
405.529	168.5
405.99	174.4
406.451	165.6
406.913	170.8
407.374	167.2
407.835	168.9
408.296	172.2
408.757	170.2
409.218	184.3
409.679	171.9
410.14	172.6
410.601	181.9
411.062	178.6
411.522	174.3
411.983	175.3
412.444	178.3
412.905	183.6
413.366	187.3
413.826	195.1
414.287	222.4
414.748	271.8
415.208	249.5
415.669	211.1
416.13	207.8
416.59	205.8
417.051	220.1
417.511	229.8
417.972	239.9
418.432	259.9
418.893	299.1
419.353	267.1
419.814	213.9
420.274	189.4
420.734	190
421.195	202.7
421.655	194
422.115	195.2
422.576	198.7
423.036	201.6
423.496	209.4
423.956	217.1
424.416	223.8
424.876	268.3
425.336	258.9
425.797	261.5
426.257	257.4
426.717	234.1
427.177	232.4
427.637	225.4
428.097	232.5
428.556	238.9
429.016	267.8
429.476	259.6
429.936	270.4
430.396	266.4
430.856	282.6
431.315	295.1
431.775	330
432.235	360.5
432.694	342.1
433.154	343.4
433.614	367.4
434.073	317.3
434.533	279.2
434.993	266.1
435.452	268.6
435.912	277.2
436.371	278.2
436.83	266.6
437.29	257.1
437.749	237.3
438.209	240.5
438.668	256
439.127	261.3
439.587	241.3
440.046	242.2
440.505	247.5
440.964	255.8
441.424	286.9
441.883	281
442.342	249.2
442.801	217.3
443.26	225.1
443.719	222.1
444.178	225.5
444.637	218.8
445.096	227.7
445.555	224.2
446.014	232.1
446.473	228.8
446.932	235.3
447.391	230.2
447.849	231.1
448.308	223
448.767	222.2
449.226	236
449.685	237.1
450.143	254.4
450.602	238.9
451.061	231.3
451.519	228.3
451.978	230.1
452.436	240.2
452.895	230.3
453.353	241.3
453.812	238.6
454.27	238.4
454.729	231.9
455.187	226.4
455.646	232.7
456.104	232.6
456.562	244.8
457.021	257.8
457.479	253.6
457.937	260.7
458.395	258.2
458.854	243.8
459.312	250.8
459.77	262.1
460.228	246
460.686	240
461.144	245.2
461.602	244.4
462.06	241.6
462.518	253.2
462.976	253.5
463.434	252.4
463.892	251.1
464.35	259.5
464.808	274.5
465.266	251.5
465.724	261.7
466.181	270.1
466.639	273
467.097	290.8
467.555	289
468.012	289
468.47	303.3
468.928	310.2
469.385	322.3
469.843	333.1
470.3	334.8
470.758	344
471.215	352.7
471.673	378.4
472.13	378
472.588	383.8
473.045	359.4
473.503	370.3
473.96	388
474.417	386.4
474.875	413.3
475.332	441.6
475.789	439.6
476.246	432
476.704	452.7
477.161	473.6
477.618	488.8
478.075	509
478.532	558.1
478.989	611.8
479.446	707.2
479.903	701.1
480.36	728.6
480.817	765.6
481.274	850.9
481.731	935.5
482.188	1011.7
482.645	1134.3
483.102	1232.7
483.558	1312
484.015	1371.4
484.472	1366.1
484.929	1340.4
485.385	1280.1
485.842	1253.4
486.299	1203.5
486.755	1143.8
487.212	979.3
487.668	851.7
488.125	805.1
488.582	729.8
489.038	697.2
489.494	651.9
489.951	643.1
490.407	630.3
490.864	598.9
491.32	601.7
491.776	592.8
492.233	593.2
492.689	572.6
493.145	564.7
493.602	556.4
494.058	564.6
494.514	564.1
494.97	578
495.426	600
495.882	573.6
496.338	570.1
496.794	573
497.251	559
497.707	581.1
498.163	585
498.618	584.3
499.074	583.6
499.53	602.4
499.986	590.6
500.442	579
500.898	563.4
501.354	569.6
501.809	569.2
502.265	576.1
502.721	579.2
503.177	593.8
503.632	593.4
504.088	597.6
504.543	608.6
504.999	611.4
505.455	605.4
505.91	581.6
506.366	596.1
506.821	582.3
507.277	586.4
507.732	583.7
508.187	589.1
508.643	594.6
509.098	586.6
509.553	614.7
510.009	615.3
510.464	607.5
510.919	633.9
511.375	629.8
511.83	635.2
512.285	636.2
512.74	673.9
513.195	694.7
513.65	695.8
514.105	685.8
514.56	693.2
515.015	701
515.47	708.3
515.925	695.4
516.38	699
516.835	713.4
517.29	699.2
517.745	708.1
518.2	687.5
518.655	671.9
519.109	669.4
519.564	664.8
520.019	652.3
520.474	649.8
520.928	645.2
521.383	650.9
521.838	632.1
522.292	630.8
522.747	643.3
523.201	634.4
523.656	624.4
524.11	626.3
524.565	624.1
525.019	616.9
525.474	621.4
525.928	627.7
526.382	623.1
526.837	614.5
527.291	617.5
527.745	622.1
528.2	614.3
528.654	604.8
529.108	605.9
529.562	604.9
530.016	600.5
530.47	601.4
530.925	608.4
531.379	600.8
531.833	617.5
532.287	609.7
532.741	609.6
533.195	607.7
533.649	615.3
534.103	622.7
534.556	613.6
535.01	604.8
535.464	609.8
535.918	614.1
536.372	608.1
536.826	613.1
537.279	595.5
537.733	611
538.187	620.1
538.64	600.6
539.094	615.2
539.548	624.6
540.001	620.2
540.455	622.3
540.908	635
541.362	630.7
541.815	639.5
542.269	649.4
542.722	653.9
543.175	661.2
543.629	659.3
544.082	675.5
544.536	680.2
544.989	673.8
545.442	688.2
545.895	683.5
546.349	679.7
546.802	678.9
547.255	681
547.708	686.7
548.161	689.3
548.614	696.5
549.067	696.1
549.52	693.1
549.973	688.8
550.426	689.5
550.879	670.6
551.332	682.3
551.785	688.5
552.238	674.5
552.691	683.5
553.144	698.8
553.596	714.8
554.049	718.4
554.502	744.5
554.955	761.5
555.407	755.5
555.86	742.7
556.313	735.2
556.765	741.6
557.218	727.5
557.67	719.3
558.123	725.5
558.576	713.6
559.028	725.8
559.48	730.8
559.933	721.7
560.385	696.3
560.838	674.8
561.29	655.4
561.742	643.1
562.195	639.8
562.647	635.9
563.099	642.9
563.551	636.7
564.004	646.2
564.456	643
564.908	623.5
565.36	608.5
565.812	589.2
566.264	593.8
566.716	590.4
567.168	579.6
567.62	577.6
568.072	563.9
568.524	560.2
568.976	558.9
569.428	546
569.88	548
570.332	550
570.784	554.2
571.235	551.2
571.687	569.8
572.139	567.4
572.59	570.4
573.042	570
573.494	572.9
573.945	563.8
574.397	552.5
574.849	554.3
575.3	553.9
575.752	557
576.203	545.8
576.655	553
577.106	537.2
577.557	540.4
578.009	534.3
578.46	535.1
578.912	523.6
579.363	527.2
579.814	531.8
580.265	530.1
580.717	531.7
581.168	528.1
581.619	538.5
582.07	544.5
582.521	542.7
582.972	528.2
583.423	529.6
583.875	528.9
584.326	540.9
584.777	549.5
585.227	574.2
585.678	603.5
586.129	626
586.58	659.7
587.031	686
587.482	734.2
587.933	784.7
588.384	744.4
588.834	661.4
589.285	613
589.736	614.7
590.186	608.2
590.637	605.5
591.088	592
591.538	582.9
591.989	565.3
592.439	563
592.89	561.5
593.34	544
593.791	549
594.241	539.8
594.692	540.7
595.142	539.8
595.593	530.7
596.043	542.8
596.493	542.8
596.943	543.5
597.394	559.9
597.844	551.1
598.294	559.8
598.744	582.7
599.195	603.7
599.645	630.3
600.095	663.7
600.545	701
600.995	740.5
601.445	782
601.895	819.1
602.345	861.1
602.795	856.7
603.245	812.6
603.695	781.7
604.145	733.1
604.594	701.3
605.044	661.8
605.494	617.1
605.944	577.5
606.393	560.5
606.843	550.8
607.293	548.8
607.743	541.9
608.192	555
608.642	565
609.091	568.3
609.541	571.3
609.99	563.7
610.44	561.3
610.889	537.2
611.339	533
611.788	511.5
612.238	514.6
612.687	536.2
613.136	527.8
613.586	534.3
614.035	520.7
614.484	531.8
614.933	536.7
615.383	534.8
615.832	531.4
616.281	513.2
616.73	507.8
617.179	497.2
617.628	485.2
618.077	467.7
618.526	463.2
618.975	464
619.424	458.3
619.873	453.8
620.322	452.9
620.771	450.6
621.22	443.8
621.669	443.3
622.118	433.2
622.567	426.8
623.015	426.8
623.464	423.6
623.913	420.9
624.361	415
624.81	415
625.259	406.6
625.707	412.9
626.156	402.7
626.604	423.6
627.053	417.2
627.501	422.1
627.95	421.3
628.398	422.1
628.847	418
629.295	420.3
629.744	425.7
630.192	420.1
630.64	414.4
631.089	400
631.537	402.7
631.985	395.7
632.433	397.7
632.881	391.4
633.33	404.9
633.778	395.4
634.226	379.2
634.674	389.3
635.122	393.6
635.57	414.4
636.018	416.3
636.466	412.8
636.914	400.6
637.362	417.7
637.81	425.5
638.258	415.5
638.705	426.1
639.153	437.9
639.601	444.3
640.049	464.2
640.497	481.8
640.944	502.7
641.392	470.1
641.84	442
642.287	423.7
642.735	409.4
643.182	409.9
643.63	402.9
644.078	407.9
644.525	421.7
644.973	425.7
645.42	435
645.867	440.2
646.315	454.9
646.762	477.2
647.21	486
647.657	496.3
648.104	532.7
648.551	538.1
648.999	580.7
649.446	631.5
649.893	692.2
650.34	770.9
650.787	919.2
651.234	1129.4
651.682	1441.3
652.129	1955.7
652.576	2746.6
653.023	4019.4
653.47	5571.6
653.917	7075.3
654.363	8312.8
654.81	9422
655.257	8976.2
655.704	5913.1
656.151	3482.5
656.598	2275.4
657.044	1615.1
657.491	1262.6
657.938	1007.3
658.385	843
658.831	747.6
659.278	664.8
659.724	591.6
660.171	538.7
660.618	502.4
661.064	468.9
661.511	449.3
661.957	448.2
662.404	438.5
662.85	442.6
663.296	414.7
663.743	389.6
664.189	377.3
664.635	376.4
665.082	369.1
665.528	368.9
665.974	367.1
666.42	362.1
666.867	353.6
667.313	333.4
667.759	336.1
668.205	324.1
668.651	332.9
669.097	325.4
669.543	316.4
669.989	313.3
670.435	315.1
670.881	314
671.327	317.7
671.773	333.6
672.219	345.7
672.665	395.4
673.11	416.3
673.556	443.3
674.002	476.6
674.448	474.9
674.893	397
675.339	343.3
675.785	315.8
676.23	303
676.676	279.8
677.122	277.1
677.567	260.7
678.013	264.4
678.458	261.5
678.904	260.1
679.349	237.2
679.794	247.2
680.24	252.3
680.685	250.7
681.131	252.6
681.576	241.9
682.021	252.3
682.466	243.9
682.912	244.1
683.357	248.7
683.802	268.5
684.247	285.2
684.692	318.2
685.137	343.2
685.583	381
686.028	398
686.473	367.5
686.918	314.4
687.363	287.5
687.807	280.3
688.252	262.3
688.697	257.5
689.142	237
689.587	232
690.032	220
690.477	233.2
690.921	243.4
691.366	265
691.811	289.5
692.255	311
692.7	321.8
693.145	352.1
693.589	474.5
694.034	765.2
694.478	1068.4
694.923	1262.1
695.367	1683.5
695.812	875.4
696.256	353.5
696.701	264.1
697.145	239.6
697.59	227.1
698.034	225.1
698.478	231.7
698.922	221.4
699.367	226.9
699.811	234.7
700.255	248.6
700.699	266.5
701.143	290.2
701.588	335.9
702.032	370.2
702.476	364.5
702.92	353.5
703.364	349.6
703.808	430.3
704.252	697.8
704.696	1012.4
705.14	1215.2
705.584	1577.8
706.027	771.7
706.471	371.8
706.915	280.5
707.359	246.4
707.803	218.3
708.246	214.9
708.69	218
709.134	219.2
709.577	218
710.021	223.8
710.465	210.4
710.908	208.7
711.352	204.6
711.795	212.7
712.239	240.8
712.682	258.9
713.126	302
713.569	326.8
714.012	252
714.456	215.7
714.899	205.5
715.342	191.1
715.786	180.8
716.229	177.8
716.672	176.7
717.115	176.6
717.558	170.1
718.002	177.5
718.445	183
718.888	202.4
719.331	207.4
719.774	212.3
720.217	209.5
720.66	200.9
721.103	187.7
721.546	179.7
721.989	166.7
722.432	157.6
722.874	164
723.317	158.7
723.76	159.9
724.203	178.2
724.645	207
725.088	296.4
725.531	399.2
725.974	455.7
726.416	387.9
726.859	217.7
727.301	165.5
727.744	167.2
728.187	166
728.629	169.4
729.071	162.9
729.514	178.8
729.956	186.1
730.399	192.6
730.841	199
731.283	190.3
731.726	185.4
732.168	177.4
732.61	181.5
733.053	199.4
733.495	207.7
733.937	237.1
734.379	276.6
734.821	302.3
735.263	373.6
735.705	560.2
736.148	1058.3
736.59	1802.6
737.032	2257.8
737.474	1847.9
737.916	579.7
738.357	302.3
738.799	225.1
739.241	206.7
739.683	194.6
740.125	205.4
740.567	206.2
741.008	221.3
741.45	224
741.892	217.4
742.334	249.1
742.775	261
743.217	247.8
743.658	192.4
744.1	183.6
744.542	188.8
744.983	223.7
745.425	260.6
745.866	259.1
746.307	197.4
746.749	193.2
747.19	224.6
747.632	303.5
748.073	589.4
748.514	1268.3
748.956	2032.9
749.397	2538.4
749.838	2119.7
750.279	2197.1
750.72	1106.6
751.162	395
751.603	231.2
752.044	176.9
752.485	148.1
752.926	140
753.367	135.5
753.808	128.5
754.249	135.2
754.69	128.7
755.131	128.4
755.572	119.5
756.013	124.6
756.453	123.4
756.894	126.4
757.335	128.7
757.776	132.9
758.216	132.8
758.657	132
759.098	141.7
759.538	156.8
759.979	183.5
760.42	249.5
760.86	480.8
761.301	1222
761.741	3114
762.182	4899.4
762.622	3470
763.063	975.9
763.503	377.3
763.943	231.4
764.384	199.7
764.824	203.9
765.264	214.9
765.705	171.6
766.145	125.9
766.585	115.8
767.025	116.3
767.465	116.5
767.906	131.4
768.346	161.2
768.786	173.5
769.226	157.5
769.666	203.2
770.106	399
770.546	1034.7
770.986	1910.7
771.426	1768.9
771.866	573.9
772.306	230.2
772.745	144.2
773.185	116.2
773.625	111.5
774.065	103.8
774.505	111.2
774.944	154.2
775.384	286
775.824	530
776.263	533.2
776.703	243.6
777.142	114.5
777.582	91.8
778.021	87.8
778.461	94.8
778.9	80.5
779.34	88.8
779.779	75
780.219	67.5
780.658	66.2
781.097	74.7
781.537	81.1
781.976	76.1
782.415	66.8
782.855	67.5
783.294	59.7
783.733	67.1
784.172	70.3
784.611	65.1
785.05	76
785.489	69.3
785.928	73.6
786.367	82.6
786.806	82.5
787.245	93
787.684	85.4
788.123	101.8
788.562	92.1
789.001	84.3
789.44	78.1
789.879	79.1
790.317	78.8
790.756	89.3
791.195	81.2
791.634	101.8
792.072	138.3
792.511	241.9
792.95	673.6
793.388	1522.6
793.827	1453.3
794.265	494.3
794.704	195
795.142	130.4
795.581	106.3
796.019	100.1
796.458	89.1
796.896	82.5
797.334	92.6
797.773	112.2
798.211	146.8
798.649	284.1
799.087	695.6
799.526	1135.8
799.964	1431.7
800.402	1505.4
800.84	556
801.278	215.3
801.716	134.3
802.154	108.7
802.592	105.2
803.03	97.5
803.468	91
803.906	100
804.344	105.2
804.782	91.1
805.22	91.4
805.658	90.1
806.096	98.8
806.533	111.1
806.971	122.6
807.409	148.4
807.847	213.1
808.284	450.8
808.722	1307.1
809.16	2430.2
809.597	2243.9
810.035	4006.5
810.472	4553.4
810.91	1598.3
