Data from 20170802-ORNL-NYSim-Air_HRD10391_10-36-27-602.txt Node
Date: Wed Aug 02 10:36:27 EDT 2017
User: Ender
Spectrometer: HR+D1039
Trigger mode: 0
Integration Time (sec): 3.750000E-3
Scans to average: 1
Electric dark correction enabled: true
Nonlinearity correction enabled: false
Boxcar width: 0
XAxis mode: Wavelengths
Number of Pixels in Spectrum: 2048
>>>>>Begin Spectral Data<<<<<
187.836	2.81
188.309	2.81
188.782	2.81
189.255	-3.19
189.728	-10.19
190.201	-14.19
190.674	-23.19
191.147	-0.19
191.619	-20.19
192.092	-10.19
192.565	-4.19
193.038	-2.19
193.511	9.81
193.984	6.81
194.456	10.81
194.929	19.81
195.402	9.81
195.874	27.81
196.347	27.81
196.82	15.81
197.292	39.81
197.765	27.81
198.237	49.81
198.71	43.81
199.182	54.81
199.655	49.81
200.127	71.81
200.6	75.81
201.072	68.81
201.544	56.81
202.017	59.81
202.489	74.81
202.961	64.81
203.433	62.81
203.906	61.81
204.378	82.81
204.85	65.81
205.322	90.81
205.794	89.81
206.266	95.81
206.739	75.81
207.211	77.81
207.683	87.81
208.155	81.81
208.627	86.81
209.099	87.81
209.57	76.81
210.042	88.81
210.514	74.81
210.986	78.81
211.458	74.81
211.93	72.81
212.402	80.81
212.873	102.81
213.345	71.81
213.817	96.81
214.288	71.81
214.76	89.81
215.232	80.81
215.703	90.81
216.175	93.81
216.646	83.81
217.118	78.81
217.589	82.81
218.061	89.81
218.532	87.81
219.004	93.81
219.475	77.81
219.946	92.81
220.418	79.81
220.889	78.81
221.36	98.81
221.832	76.81
222.303	76.81
222.774	68.81
223.245	88.81
223.717	86.81
224.188	67.81
224.659	84.81
225.13	83.81
225.601	69.81
226.072	90.81
226.543	93.81
227.014	91.81
227.485	80.81
227.956	84.81
228.427	71.81
228.898	88.81
229.369	67.81
229.839	89.81
230.31	78.81
230.781	100.81
231.252	76.81
231.722	82.81
232.193	92.81
232.664	88.81
233.135	85.81
233.605	81.81
234.076	88.81
234.546	89.81
235.017	96.81
235.487	81.81
235.958	82.81
236.428	83.81
236.899	84.81
237.369	80.81
237.84	85.81
238.31	78.81
238.78	69.81
239.251	65.81
239.721	90.81
240.191	83.81
240.662	92.81
241.132	90.81
241.602	89.81
242.072	96.81
242.542	77.81
243.013	101.81
243.483	88.81
243.953	99.81
244.423	89.81
244.893	87.81
245.363	79.81
245.833	96.81
246.303	98.81
246.773	105.81
247.243	81.81
247.712	87.81
248.182	87.81
248.652	109.81
249.122	79.81
249.592	97.81
250.061	101.81
250.531	75.81
251.001	99.81
251.471	105.81
251.94	90.81
252.41	96.81
252.879	85.81
253.349	87.81
253.818	83.81
254.288	93.81
254.757	108.81
255.227	107.81
255.696	99.81
256.166	97.81
256.635	107.81
257.105	100.81
257.574	94.81
258.043	94.81
258.513	89.81
258.982	107.81
259.451	97.81
259.92	89.81
260.389	98.81
260.859	91.81
261.328	109.81
261.797	113.81
262.266	114.81
262.735	107.81
263.204	114.81
263.673	113.81
264.142	103.81
264.611	107.81
265.08	116.81
265.549	82.81
266.018	107.81
266.487	115.81
266.955	77.81
267.424	102.81
267.893	111.81
268.362	100.81
268.83	114.81
269.299	100.81
269.768	108.81
270.236	113.81
270.705	99.81
271.174	113.81
271.642	105.81
272.111	109.81
272.579	104.81
273.048	106.81
273.516	110.81
273.985	108.81
274.453	107.81
274.922	100.81
275.39	122.81
275.858	104.81
276.327	117.81
276.795	109.81
277.263	111.81
277.731	100.81
278.2	105.81
278.668	127.81
279.136	119.81
279.604	124.81
280.072	103.81
280.54	96.81
281.008	120.81
281.477	124.81
281.945	103.81
282.413	123.81
282.881	122.81
283.348	121.81
283.816	133.81
284.284	116.81
284.752	127.81
285.22	135.81
285.688	133.81
286.156	139.81
286.623	145.81
287.091	119.81
287.559	125.81
288.026	136.81
288.494	134.81
288.962	142.81
289.429	120.81
289.897	125.81
290.364	130.81
290.832	116.81
291.3	130.81
291.767	130.81
292.234	126.81
292.702	131.81
293.169	136.81
293.637	122.81
294.104	151.81
294.571	152.81
295.039	116.81
295.506	140.81
295.973	126.81
296.44	133.81
296.908	122.81
297.375	131.81
297.842	137.81
298.309	145.81
298.776	136.81
299.243	119.81
299.71	144.81
300.177	134.81
300.644	148.81
301.111	149.81
301.578	146.81
302.045	135.81
302.512	141.81
302.979	151.81
303.446	161.81
303.913	172.81
304.379	141.81
304.846	156.81
305.313	155.81
305.78	133.81
306.246	154.81
306.713	161.81
307.18	167.81
307.646	151.81
308.113	148.81
308.579	161.81
309.046	144.81
309.512	155.81
309.979	154.81
310.445	149.81
310.912	161.81
311.378	175.81
311.845	201.81
312.311	151.81
312.777	159.81
313.244	166.81
313.71	169.81
314.176	161.81
314.642	170.81
315.109	177.81
315.575	175.81
316.041	153.81
316.507	175.81
316.973	179.81
317.439	177.81
317.905	156.81
318.371	178.81
318.837	174.81
319.303	185.81
319.769	177.81
320.235	181.81
320.701	175.81
321.167	172.81
321.633	174.81
322.099	197.81
322.564	202.81
323.03	187.81
323.496	199.81
323.962	173.81
324.427	189.81
324.893	191.81
325.359	221.81
325.824	205.81
326.29	188.81
326.755	196.81
327.221	217.81
327.686	193.81
328.152	197.81
328.617	214.81
329.083	194.81
329.548	183.81
330.014	197.81
330.479	215.81
330.944	225.81
331.41	202.81
331.875	204.81
332.34	195.81
332.805	204.81
333.271	192.81
333.736	229.81
334.201	217.81
334.666	226.81
335.131	224.81
335.596	208.81
336.061	228.81
336.526	214.81
336.991	202.81
337.456	210.81
337.921	215.81
338.386	207.81
338.851	219.81
339.316	218.81
339.781	201.81
340.246	217.81
340.711	240.81
341.175	210.81
341.64	225.81
342.105	219.81
342.569	234.81
343.034	223.81
343.499	237.81
343.963	225.81
344.428	225.81
344.893	243.81
345.357	233.81
345.822	249.81
346.286	238.81
346.751	264.81
347.215	255.81
347.679	250.81
348.144	263.81
348.608	264.81
349.073	250.81
349.537	261.81
350.001	271.81
350.465	271.81
350.93	275.81
351.394	281.81
351.858	288.81
352.322	276.81
352.786	281.81
353.25	268.81
353.715	270.81
354.179	292.81
354.643	298.81
355.107	311.81
355.571	306.81
356.035	309.81
356.498	306.81
356.962	299.81
357.426	291.81
357.89	285.81
358.354	287.81
358.818	295.81
359.281	287.81
359.745	305.81
360.209	296.81
360.673	279.81
361.136	265.81
361.6	307.81
362.064	305.81
362.527	276.81
362.991	313.81
363.454	299.81
363.918	315.81
364.381	303.81
364.845	308.81
365.308	297.81
365.772	319.81
366.235	322.81
366.698	308.81
367.162	314.81
367.625	313.81
368.088	329.81
368.552	315.81
369.015	301.81
369.478	336.81
369.941	336.81
370.404	321.81
370.867	323.81
371.331	329.81
371.794	329.81
372.257	359.81
372.72	330.81
373.183	335.81
373.646	306.81
374.109	317.81
374.572	342.81
375.035	335.81
375.497	332.81
375.96	342.81
376.423	338.81
376.886	368.81
377.349	366.81
377.811	353.81
378.274	366.81
378.737	351.81
379.199	381.81
379.662	373.81
380.125	367.81
380.587	380.81
381.05	380.81
381.512	384.81
381.975	401.81
382.437	386.81
382.9	387.81
383.362	383.81
383.825	388.81
384.287	392.81
384.75	407.81
385.212	413.81
385.674	408.81
386.136	419.81
386.599	392.81
387.061	390.81
387.523	418.81
387.985	419.81
388.447	400.81
388.91	429.81
389.372	426.81
389.834	391.81
390.296	405.81
390.758	418.81
391.22	429.81
391.682	437.81
392.144	445.81
392.606	430.81
393.068	422.81
393.529	444.81
393.991	456.81
394.453	444.81
394.915	433.81
395.377	415.81
395.838	415.81
396.3	431.81
396.762	445.81
397.224	428.81
397.685	437.81
398.147	427.81
398.608	453.81
399.07	471.81
399.531	461.81
399.993	447.81
400.454	482.81
400.916	485.81
401.377	469.81
401.839	461.81
402.3	497.81
402.762	491.81
403.223	548.81
403.684	513.81
404.145	497.81
404.607	480.81
405.068	487.81
405.529	474.81
405.99	491.81
406.451	511.81
406.913	461.81
407.374	517.81
407.835	489.81
408.296	485.81
408.757	500.81
409.218	515.81
409.679	535.81
410.14	535.81
410.601	559.81
411.062	548.81
411.522	560.81
411.983	566.81
412.444	583.81
412.905	593.81
413.366	599.81
413.826	657.81
414.287	690.81
414.748	854.81
415.208	896.81
415.669	706.81
416.13	681.81
416.59	692.81
417.051	676.81
417.511	734.81
417.972	777.81
418.432	803.81
418.893	896.81
419.353	846.81
419.814	651.81
420.274	619.81
420.734	607.81
421.195	625.81
421.655	628.81
422.115	622.81
422.576	616.81
423.036	645.81
423.496	634.81
423.956	663.81
424.416	685.81
424.876	786.81
425.336	761.81
425.797	760.81
426.257	746.81
426.717	677.81
427.177	632.81
427.637	618.81
428.097	635.81
428.556	662.81
429.016	690.81
429.476	695.81
429.936	648.81
430.396	654.81
430.856	650.81
431.315	693.81
431.775	685.81
432.235	787.81
432.694	793.81
433.154	727.81
433.614	736.81
434.073	712.81
434.533	653.81
434.993	617.81
435.452	626.81
435.912	657.81
436.371	661.81
436.83	649.81
437.29	629.81
437.749	642.81
438.209	618.81
438.668	641.81
439.127	673.81
439.587	639.81
440.046	651.81
440.505	687.81
440.964	671.81
441.424	716.81
441.883	711.81
442.342	690.81
442.801	677.81
443.26	707.81
443.719	670.81
444.178	675.81
444.637	669.81
445.096	689.81
445.555	699.81
446.014	690.81
446.473	691.81
446.932	686.81
447.391	717.81
447.849	725.81
448.308	700.81
448.767	697.81
449.226	749.81
449.685	715.81
450.143	759.81
450.602	762.81
451.061	724.81
451.519	732.81
451.978	716.81
452.436	729.81
452.895	722.81
453.353	716.81
453.812	704.81
454.27	720.81
454.729	729.81
455.187	723.81
455.646	753.81
456.104	733.81
456.562	689.81
457.021	752.81
457.479	697.81
457.937	757.81
458.395	799.81
458.854	741.81
459.312	749.81
459.77	761.81
460.228	741.81
460.686	786.81
461.144	763.81
461.602	759.81
462.06	754.81
462.518	783.81
462.976	756.81
463.434	789.81
463.892	794.81
464.35	782.81
464.808	815.81
465.266	820.81
465.724	832.81
466.181	825.81
466.639	830.81
467.097	875.81
467.555	912.81
468.012	858.81
468.47	884.81
468.928	919.81
469.385	901.81
469.843	935.81
470.3	946.81
470.758	956.81
471.215	953.81
471.673	1002.81
472.13	1007.81
472.588	1014.81
473.045	978.81
473.503	1060.81
473.96	1067.81
474.417	1066.81
474.875	1118.81
475.332	1085.81
475.789	1120.81
476.246	1160.81
476.704	1196.81
477.161	1162.81
477.618	1205.81
478.075	1193.81
478.532	1233.81
478.989	1297.81
479.446	1316.81
479.903	1255.81
480.36	1352.81
480.817	1347.81
481.274	1349.81
481.731	1405.81
482.188	1415.81
482.645	1477.81
483.102	1439.81
483.558	1502.81
484.015	1535.81
484.472	1515.81
484.929	1538.81
485.385	1549.81
485.842	1532.81
486.299	1545.81
486.755	1540.81
487.212	1522.81
487.668	1487.81
488.125	1485.81
488.582	1420.81
489.038	1430.81
489.494	1475.81
489.951	1489.81
490.407	1497.81
490.864	1451.81
491.32	1463.81
491.776	1485.81
492.233	1517.81
492.689	1499.81
493.145	1490.81
493.602	1498.81
494.058	1479.81
494.514	1515.81
494.97	1561.81
495.426	1569.81
495.882	1539.81
496.338	1590.81
496.794	1554.81
497.251	1598.81
497.707	1603.81
498.163	1588.81
498.618	1632.81
499.074	1645.81
499.53	1607.81
499.986	1666.81
500.442	1613.81
500.898	1635.81
501.354	1682.81
501.809	1679.81
502.265	1625.81
502.721	1630.81
503.177	1676.81
503.632	1662.81
504.088	1695.81
504.543	1673.81
504.999	1699.81
505.455	1719.81
505.91	1736.81
506.366	1713.81
506.821	1649.81
507.277	1737.81
507.732	1671.81
508.187	1705.81
508.643	1735.81
509.098	1747.81
509.553	1726.81
510.009	1772.81
510.464	1834.81
510.919	1811.81
511.375	1840.81
511.83	1869.81
512.285	1897.81
512.74	1897.81
513.195	1924.81
513.65	2000.81
514.105	1966.81
514.56	1996.81
515.015	2079.81
515.47	2058.81
515.925	2094.81
516.38	2041.81
516.835	2045.81
517.29	2027.81
517.745	2073.81
518.2	1989.81
518.655	1993.81
519.109	1966.81
519.564	1950.81
520.019	1871.81
520.474	1901.81
520.928	1832.81
521.383	1883.81
521.838	1856.81
522.292	1847.81
522.747	1836.81
523.201	1819.81
523.656	1819.81
524.11	1825.81
524.565	1752.81
525.019	1830.81
525.474	1800.81
525.928	1788.81
526.382	1815.81
526.837	1769.81
527.291	1783.81
527.745	1773.81
528.2	1811.81
528.654	1811.81
529.108	1799.81
529.562	1793.81
530.016	1775.81
530.47	1746.81
530.925	1776.81
531.379	1788.81
531.833	1801.81
532.287	1769.81
532.741	1798.81
533.195	1797.81
533.649	1769.81
534.103	1786.81
534.556	1767.81
535.01	1756.81
535.464	1733.81
535.918	1782.81
536.372	1819.81
536.826	1827.81
537.279	1795.81
537.733	1755.81
538.187	1751.81
538.64	1784.81
539.094	1795.81
539.548	1806.81
540.001	1793.81
540.455	1855.81
540.908	1833.81
541.362	1847.81
541.815	1907.81
542.269	1925.81
542.722	1923.81
543.175	1906.81
543.629	1922.81
544.082	1980.81
544.536	1979.81
544.989	1952.81
545.442	1975.81
545.895	2039.81
546.349	2025.81
546.802	1969.81
547.255	1958.81
547.708	1998.81
548.161	2007.81
548.614	2015.81
549.067	2050.81
549.52	2089.81
549.973	1991.81
550.426	1992.81
550.879	2008.81
551.332	1994.81
551.785	2008.81
552.238	2034.81
552.691	2033.81
553.144	2076.81
553.596	2047.81
554.049	2084.81
554.502	2138.81
554.955	2165.81
555.407	2216.81
555.86	2222.81
556.313	2207.81
556.765	2152.81
557.218	2145.81
557.67	2145.81
558.123	2096.81
558.576	2121.81
559.028	2065.81
559.48	2157.81
559.933	2142.81
560.385	2073.81
560.838	1974.81
561.29	1901.81
561.742	1928.81
562.195	1893.81
562.647	1864.81
563.099	1866.81
563.551	1874.81
564.004	1857.81
564.456	1841.81
564.908	1822.81
565.36	1809.81
565.812	1747.81
566.264	1676.81
566.716	1675.81
567.168	1692.81
567.62	1657.81
568.072	1690.81
568.524	1695.81
568.976	1657.81
569.428	1689.81
569.88	1650.81
570.332	1624.81
570.784	1634.81
571.235	1656.81
571.687	1648.81
572.139	1655.81
572.59	1663.81
573.042	1650.81
573.494	1679.81
573.945	1644.81
574.397	1591.81
574.849	1576.81
575.3	1589.81
575.752	1607.81
576.203	1573.81
576.655	1600.81
577.106	1580.81
577.557	1545.81
578.009	1572.81
578.46	1561.81
578.912	1525.81
579.363	1578.81
579.814	1561.81
580.265	1548.81
580.717	1556.81
581.168	1538.81
581.619	1541.81
582.07	1550.81
582.521	1539.81
582.972	1573.81
583.423	1527.81
583.875	1583.81
584.326	1601.81
584.777	1580.81
585.227	1623.81
585.678	1660.81
586.129	1699.81
586.58	1661.81
587.031	1772.81
587.482	1753.81
587.933	1797.81
588.384	1767.81
588.834	1761.81
589.285	1752.81
589.736	1756.81
590.186	1738.81
590.637	1765.81
591.088	1698.81
591.538	1655.81
591.989	1611.81
592.439	1643.81
592.89	1652.81
593.34	1593.81
593.791	1565.81
594.241	1602.81
594.692	1587.81
595.142	1567.81
595.593	1590.81
596.043	1551.81
596.493	1589.81
596.943	1604.81
597.394	1634.81
597.844	1689.81
598.294	1713.81
598.744	1746.81
599.195	1806.81
599.645	1939.81
600.095	2016.81
600.545	2128.81
600.995	2220.81
601.445	2352.81
601.895	2425.81
602.345	2543.81
602.795	2518.81
603.245	2361.81
603.695	2261.81
604.145	2152.81
604.594	2003.81
605.044	1901.81
605.494	1822.81
605.944	1714.81
606.393	1647.81
606.843	1607.81
607.293	1601.81
607.743	1641.81
608.192	1603.81
608.642	1641.81
609.091	1635.81
609.541	1620.81
609.99	1616.81
610.44	1612.81
610.889	1575.81
611.339	1574.81
611.788	1530.81
612.238	1508.81
612.687	1538.81
613.136	1551.81
613.586	1548.81
614.035	1561.81
614.484	1585.81
614.933	1602.81
615.383	1537.81
615.832	1500.81
616.281	1504.81
616.73	1445.81
617.179	1393.81
617.628	1414.81
618.077	1350.81
618.526	1393.81
618.975	1320.81
619.424	1320.81
619.873	1342.81
620.322	1348.81
620.771	1365.81
621.22	1330.81
621.669	1259.81
622.118	1265.81
622.567	1261.81
623.015	1179.81
623.464	1212.81
623.913	1193.81
624.361	1206.81
624.81	1197.81
625.259	1191.81
625.707	1210.81
626.156	1225.81
626.604	1208.81
627.053	1215.81
627.501	1229.81
627.95	1240.81
628.398	1233.81
628.847	1239.81
629.295	1212.81
629.744	1229.81
630.192	1200.81
630.64	1172.81
631.089	1189.81
631.537	1148.81
631.985	1125.81
632.433	1110.81
632.881	1063.81
633.33	1127.81
633.778	1121.81
634.226	1119.81
634.674	1148.81
635.122	1157.81
635.57	1144.81
636.018	1164.81
636.466	1187.81
636.914	1166.81
637.362	1207.81
637.81	1167.81
638.258	1201.81
638.705	1235.81
639.153	1245.81
639.601	1291.81
640.049	1325.81
640.497	1346.81
640.944	1339.81
641.392	1325.81
641.84	1238.81
642.287	1144.81
642.735	1102.81
643.182	1092.81
643.63	1089.81
644.078	1066.81
644.525	1026.81
644.973	1093.81
645.42	1071.81
645.867	1070.81
646.315	1081.81
646.762	1100.81
647.21	1090.81
647.657	1100.81
648.104	1072.81
648.551	1054.81
648.999	1043.81
649.446	1016.81
649.893	992.81
650.34	1030.81
650.787	1076.81
651.234	1165.81
651.682	1153.81
652.129	1216.81
652.576	1428.81
653.023	1637.81
653.47	1827.81
653.917	1869.81
654.363	1916.81
654.81	2005.81
655.257	2093.81
655.704	1714.81
656.151	1354.81
656.598	1179.81
657.044	1105.81
657.491	1036.81
657.938	1023.81
658.385	1005.81
658.831	1027.81
659.278	983.81
659.724	972.81
660.171	971.81
660.618	991.81
661.064	945.81
661.511	958.81
661.957	929.81
662.404	939.81
662.85	935.81
663.296	974.81
663.743	984.81
664.189	954.81
664.635	966.81
665.082	948.81
665.528	951.81
665.974	933.81
666.42	934.81
666.867	942.81
667.313	894.81
667.759	886.81
668.205	873.81
668.651	890.81
669.097	873.81
669.543	906.81
669.989	913.81
670.435	902.81
670.881	914.81
671.327	931.81
671.773	1031.81
672.219	1120.81
672.665	1164.81
673.11	1246.81
673.556	1261.81
674.002	1293.81
674.448	1343.81
674.893	1155.81
675.339	1023.81
675.785	896.81
676.23	874.81
676.676	799.81
677.122	802.81
677.567	799.81
678.013	795.81
678.458	771.81
678.904	769.81
679.349	790.81
679.794	735.81
680.24	730.81
680.685	749.81
681.131	735.81
681.576	760.81
682.021	776.81
682.466	764.81
682.912	776.81
683.357	814.81
683.802	840.81
684.247	953.81
684.692	979.81
685.137	1084.81
685.583	1101.81
686.028	1154.81
686.473	1130.81
686.918	973.81
687.363	883.81
687.807	854.81
688.252	805.81
688.697	755.81
689.142	708.81
689.587	757.81
690.032	784.81
690.477	794.81
690.921	832.81
691.366	828.81
691.811	873.81
692.255	919.81
692.7	1094.81
693.145	1393.81
693.589	2179.81
694.034	2937.81
694.478	3318.81
694.923	3007.81
695.367	3782.81
695.812	3456.81
696.256	1366.81
696.701	853.81
697.145	762.81
697.59	726.81
698.034	731.81
698.478	699.81
698.922	712.81
699.367	720.81
699.811	747.81
700.255	811.81
700.699	873.81
701.143	1010.81
701.588	1040.81
702.032	1077.81
702.476	1109.81
702.92	1142.81
703.364	1318.81
703.808	1993.81
704.252	2804.81
704.696	3167.81
705.14	2929.81
705.584	3709.81
706.027	2957.81
706.471	1351.81
706.915	921.81
707.359	795.81
707.803	743.81
708.246	701.81
708.69	693.81
709.134	688.81
709.577	687.81
710.021	677.81
710.465	678.81
710.908	666.81
711.352	662.81
711.795	742.81
712.239	816.81
712.682	878.81
713.126	853.81
713.569	909.81
714.012	834.81
714.456	687.81
714.899	647.81
715.342	645.81
715.786	602.81
716.229	592.81
716.672	558.81
717.115	562.81
717.558	537.81
718.002	612.81
718.445	607.81
718.888	650.81
719.331	660.81
719.774	691.81
720.217	681.81
720.66	675.81
721.103	585.81
721.546	565.81
721.989	575.81
722.432	573.81
722.874	530.81
723.317	541.81
723.76	560.81
724.203	647.81
724.645	865.81
725.088	1075.81
725.531	1149.81
725.974	1118.81
726.416	1249.81
726.859	751.81
727.301	577.81
727.744	555.81
728.187	542.81
728.629	542.81
729.071	590.81
729.514	611.81
729.956	623.81
730.399	609.81
730.841	631.81
731.283	647.81
731.726	611.81
732.168	617.81
732.61	612.81
733.053	690.81
733.495	751.81
733.937	828.81
734.379	897.81
734.821	1104.81
735.263	1580.81
735.705	2714.81
736.148	4538.81
736.59	5272.81
737.032	4912.81
737.474	5423.81
737.916	2420.81
738.357	1141.81
738.799	794.81
739.241	716.81
739.683	674.81
740.125	711.81
740.567	700.81
741.008	729.81
741.45	777.81
741.892	830.81
742.334	831.81
742.775	834.81
