Data from 20170802-ORNL-NYSim-Air_HRD10391_10-36-20-589.txt Node
Date: Wed Aug 02 10:36:20 EDT 2017
User: Ender
Spectrometer: HR+D1039
Trigger mode: 0
Integration Time (sec): 3.750000E-3
Scans to average: 1
Electric dark correction enabled: true
Nonlinearity correction enabled: false
Boxcar width: 0
XAxis mode: Wavelengths
Number of Pixels in Spectrum: 2048
>>>>>Begin Spectral Data<<<<<
187.836	-19.88
188.309	-19.88
188.782	-19.88
189.255	-7.88
189.728	2.12
190.201	-9.88
190.674	1.12
191.147	-1.88
191.619	-4.88
192.092	-13.88
192.565	11.12
193.038	6.12
193.511	9.12
193.984	-2.88
194.456	2.12
194.929	1.12
195.402	6.12
195.874	22.12
196.347	12.12
196.82	30.12
197.292	13.12
197.765	33.12
198.237	28.12
198.71	31.12
199.182	36.12
199.655	45.12
200.127	43.12
200.6	54.12
201.072	62.12
201.544	49.12
202.017	63.12
202.489	49.12
202.961	80.12
203.433	80.12
203.906	75.12
204.378	78.12
204.85	77.12
205.322	78.12
205.794	70.12
206.266	57.12
206.739	73.12
207.211	81.12
207.683	94.12
208.155	80.12
208.627	100.12
209.099	89.12
209.57	80.12
210.042	87.12
210.514	78.12
210.986	83.12
211.458	84.12
211.93	76.12
212.402	72.12
212.873	91.12
213.345	77.12
213.817	88.12
214.288	93.12
214.76	82.12
215.232	78.12
215.703	91.12
216.175	79.12
216.646	90.12
217.118	84.12
217.589	78.12
218.061	61.12
218.532	78.12
219.004	69.12
219.475	79.12
219.946	76.12
220.418	82.12
220.889	72.12
221.36	79.12
221.832	64.12
222.303	68.12
222.774	84.12
223.245	89.12
223.717	90.12
224.188	75.12
224.659	75.12
225.13	86.12
225.601	84.12
226.072	88.12
226.543	76.12
227.014	82.12
227.485	65.12
227.956	91.12
228.427	96.12
228.898	95.12
229.369	85.12
229.839	78.12
230.31	74.12
230.781	83.12
231.252	96.12
231.722	70.12
232.193	96.12
232.664	84.12
233.135	85.12
233.605	91.12
234.076	84.12
234.546	87.12
235.017	92.12
235.487	91.12
235.958	77.12
236.428	73.12
236.899	76.12
237.369	60.12
237.84	78.12
238.31	87.12
238.78	78.12
239.251	93.12
239.721	74.12
240.191	82.12
240.662	87.12
241.132	99.12
241.602	82.12
242.072	105.12
242.542	73.12
243.013	95.12
243.483	89.12
243.953	91.12
244.423	90.12
244.893	82.12
245.363	92.12
245.833	83.12
246.303	96.12
246.773	110.12
247.243	98.12
247.712	92.12
248.182	78.12
248.652	76.12
249.122	74.12
249.592	97.12
250.061	95.12
250.531	94.12
251.001	85.12
251.471	107.12
251.94	95.12
252.41	96.12
252.879	98.12
253.349	77.12
253.818	99.12
254.288	92.12
254.757	84.12
255.227	98.12
255.696	80.12
256.166	92.12
256.635	95.12
257.105	97.12
257.574	100.12
258.043	97.12
258.513	85.12
258.982	98.12
259.451	111.12
259.92	96.12
260.389	101.12
260.859	83.12
261.328	114.12
261.797	113.12
262.266	115.12
262.735	93.12
263.204	96.12
263.673	103.12
264.142	91.12
264.611	105.12
265.08	101.12
265.549	103.12
266.018	104.12
266.487	100.12
266.955	92.12
267.424	93.12
267.893	113.12
268.362	97.12
268.83	95.12
269.299	101.12
269.768	131.12
270.236	113.12
270.705	120.12
271.174	108.12
271.642	108.12
272.111	89.12
272.579	96.12
273.048	107.12
273.516	118.12
273.985	116.12
274.453	105.12
274.922	118.12
275.39	125.12
275.858	104.12
276.327	104.12
276.795	109.12
277.263	115.12
277.731	105.12
278.2	108.12
278.668	107.12
279.136	107.12
279.604	122.12
280.072	109.12
280.54	110.12
281.008	113.12
281.477	100.12
281.945	120.12
282.413	115.12
282.881	106.12
283.348	119.12
283.816	100.12
284.284	115.12
284.752	122.12
285.22	115.12
285.688	111.12
286.156	125.12
286.623	105.12
287.091	124.12
287.559	114.12
288.026	127.12
288.494	117.12
288.962	125.12
289.429	117.12
289.897	118.12
290.364	120.12
290.832	124.12
291.3	133.12
291.767	126.12
292.234	115.12
292.702	120.12
293.169	120.12
293.637	129.12
294.104	135.12
294.571	140.12
295.039	144.12
295.506	116.12
295.973	143.12
296.44	122.12
296.908	133.12
297.375	123.12
297.842	125.12
298.309	142.12
298.776	150.12
299.243	161.12
299.71	150.12
300.177	145.12
300.644	130.12
301.111	126.12
301.578	135.12
302.045	151.12
302.512	139.12
302.979	148.12
303.446	169.12
303.913	145.12
304.379	156.12
304.846	153.12
305.313	150.12
305.78	152.12
306.246	167.12
306.713	158.12
307.18	147.12
307.646	164.12
308.113	153.12
308.579	152.12
309.046	157.12
309.512	156.12
309.979	161.12
310.445	174.12
310.912	158.12
311.378	146.12
311.845	153.12
312.311	168.12
312.777	157.12
313.244	162.12
313.71	152.12
314.176	156.12
314.642	161.12
315.109	166.12
315.575	183.12
316.041	178.12
316.507	164.12
316.973	174.12
317.439	183.12
317.905	172.12
318.371	173.12
318.837	181.12
319.303	198.12
319.769	199.12
320.235	180.12
320.701	167.12
321.167	164.12
321.633	176.12
322.099	153.12
322.564	188.12
323.03	176.12
323.496	182.12
323.962	184.12
324.427	185.12
324.893	176.12
325.359	163.12
325.824	168.12
326.29	170.12
326.755	210.12
327.221	200.12
327.686	207.12
328.152	200.12
328.617	190.12
329.083	206.12
329.548	204.12
330.014	206.12
330.479	188.12
330.944	198.12
331.41	219.12
331.875	218.12
332.34	211.12
332.805	189.12
333.271	200.12
333.736	202.12
334.201	209.12
334.666	195.12
335.131	194.12
335.596	200.12
336.061	228.12
336.526	213.12
336.991	210.12
337.456	236.12
337.921	206.12
338.386	196.12
338.851	200.12
339.316	200.12
339.781	219.12
340.246	204.12
340.711	233.12
341.175	224.12
341.64	222.12
342.105	206.12
342.569	234.12
343.034	251.12
343.499	248.12
343.963	242.12
344.428	218.12
344.893	238.12
345.357	247.12
345.822	231.12
346.286	240.12
346.751	255.12
347.215	246.12
347.679	262.12
348.144	269.12
348.608	270.12
349.073	264.12
349.537	267.12
350.001	255.12
350.465	256.12
350.93	268.12
351.394	281.12
351.858	247.12
352.322	285.12
352.786	270.12
353.25	265.12
353.715	274.12
354.179	298.12
354.643	316.12
355.107	319.12
355.571	308.12
356.035	290.12
356.498	289.12
356.962	320.12
357.426	280.12
357.89	284.12
358.354	266.12
358.818	282.12
359.281	288.12
359.745	290.12
360.209	306.12
360.673	285.12
361.136	283.12
361.6	292.12
362.064	289.12
362.527	285.12
362.991	303.12
363.454	295.12
363.918	298.12
364.381	292.12
364.845	308.12
365.308	311.12
365.772	317.12
366.235	312.12
366.698	312.12
367.162	311.12
367.625	290.12
368.088	306.12
368.552	306.12
369.015	320.12
369.478	321.12
369.941	333.12
370.404	321.12
370.867	316.12
371.331	332.12
371.794	319.12
372.257	352.12
372.72	328.12
373.183	308.12
373.646	349.12
374.109	348.12
374.572	333.12
375.035	348.12
375.497	354.12
375.96	352.12
376.423	344.12
376.886	357.12
377.349	346.12
377.811	354.12
378.274	334.12
378.737	374.12
379.199	374.12
379.662	393.12
380.125	361.12
380.587	371.12
381.05	392.12
381.512	373.12
381.975	381.12
382.437	379.12
382.9	389.12
383.362	384.12
383.825	387.12
384.287	396.12
384.75	384.12
385.212	415.12
385.674	383.12
386.136	415.12
386.599	411.12
387.061	396.12
387.523	416.12
387.985	407.12
388.447	421.12
388.91	416.12
389.372	408.12
389.834	410.12
390.296	420.12
390.758	412.12
391.22	409.12
391.682	417.12
392.144	420.12
392.606	410.12
393.068	405.12
393.529	446.12
393.991	491.12
394.453	433.12
394.915	428.12
395.377	434.12
395.838	429.12
396.3	424.12
396.762	436.12
397.224	439.12
397.685	427.12
398.147	448.12
398.608	461.12
399.07	454.12
399.531	456.12
399.993	484.12
400.454	459.12
400.916	466.12
401.377	460.12
401.839	468.12
402.3	488.12
402.762	498.12
403.223	534.12
403.684	539.12
404.145	492.12
404.607	474.12
405.068	469.12
405.529	462.12
405.99	488.12
406.451	504.12
406.913	502.12
407.374	477.12
407.835	486.12
408.296	494.12
408.757	537.12
409.218	540.12
409.679	512.12
410.14	522.12
410.601	535.12
411.062	552.12
411.522	573.12
411.983	562.12
412.444	574.12
412.905	598.12
413.366	620.12
413.826	622.12
414.287	732.12
414.748	852.12
415.208	860.12
415.669	758.12
416.13	667.12
416.59	664.12
417.051	672.12
417.511	731.12
417.972	754.12
418.432	831.12
418.893	894.12
419.353	877.12
419.814	668.12
420.274	628.12
420.734	584.12
421.195	602.12
421.655	598.12
422.115	647.12
422.576	641.12
423.036	632.12
423.496	648.12
423.956	663.12
424.416	685.12
424.876	796.12
425.336	812.12
425.797	777.12
426.257	730.12
426.717	684.12
427.177	657.12
427.637	632.12
428.097	648.12
428.556	646.12
429.016	687.12
429.476	696.12
429.936	645.12
430.396	639.12
430.856	628.12
431.315	664.12
431.775	691.12
432.235	768.12
432.694	759.12
433.154	740.12
433.614	744.12
434.073	698.12
434.533	666.12
434.993	641.12
435.452	642.12
435.912	658.12
436.371	668.12
436.83	659.12
437.29	671.12
437.749	663.12
438.209	636.12
438.668	666.12
439.127	673.12
439.587	676.12
440.046	614.12
440.505	690.12
440.964	690.12
441.424	703.12
441.883	726.12
442.342	718.12
442.801	703.12
443.26	678.12
443.719	668.12
444.178	696.12
444.637	685.12
445.096	662.12
445.555	694.12
446.014	720.12
446.473	685.12
446.932	732.12
447.391	684.12
447.849	730.12
448.308	703.12
448.767	721.12
449.226	712.12
449.685	720.12
450.143	767.12
450.602	790.12
451.061	778.12
451.519	754.12
451.978	715.12
452.436	728.12
452.895	722.12
453.353	695.12
453.812	713.12
454.27	715.12
454.729	718.12
455.187	711.12
455.646	716.12
456.104	713.12
456.562	702.12
457.021	752.12
457.479	727.12
457.937	725.12
458.395	766.12
458.854	756.12
459.312	753.12
459.77	731.12
460.228	772.12
460.686	788.12
461.144	769.12
461.602	763.12
462.06	760.12
462.518	756.12
462.976	780.12
463.434	799.12
463.892	782.12
464.35	822.12
464.808	802.12
465.266	832.12
465.724	812.12
466.181	854.12
466.639	871.12
467.097	857.12
467.555	877.12
468.012	876.12
468.47	912.12
468.928	931.12
469.385	930.12
469.843	902.12
470.3	895.12
470.758	918.12
471.215	930.12
471.673	984.12
472.13	999.12
472.588	1003.12
473.045	1058.12
473.503	1056.12
473.96	1048.12
474.417	1087.12
474.875	1108.12
475.332	1144.12
475.789	1154.12
476.246	1115.12
476.704	1173.12
477.161	1197.12
477.618	1214.12
478.075	1222.12
478.532	1248.12
478.989	1283.12
479.446	1310.12
479.903	1334.12
480.36	1321.12
480.817	1342.12
481.274	1379.12
481.731	1403.12
482.188	1421.12
482.645	1421.12
483.102	1466.12
483.558	1538.12
484.015	1504.12
484.472	1535.12
484.929	1544.12
485.385	1519.12
485.842	1564.12
486.299	1543.12
486.755	1556.12
487.212	1554.12
487.668	1482.12
488.125	1460.12
488.582	1412.12
489.038	1468.12
489.494	1503.12
489.951	1458.12
490.407	1471.12
490.864	1512.12
491.32	1514.12
491.776	1530.12
492.233	1500.12
492.689	1495.12
493.145	1495.12
493.602	1491.12
494.058	1542.12
494.514	1529.12
494.97	1565.12
495.426	1594.12
495.882	1569.12
496.338	1589.12
496.794	1610.12
497.251	1570.12
497.707	1635.12
498.163	1639.12
498.618	1629.12
499.074	1650.12
499.53	1645.12
499.986	1651.12
500.442	1642.12
500.898	1640.12
501.354	1667.12
501.809	1640.12
502.265	1643.12
502.721	1689.12
503.177	1698.12
503.632	1708.12
504.088	1708.12
504.543	1729.12
504.999	1730.12
505.455	1752.12
505.91	1689.12
506.366	1689.12
506.821	1703.12
507.277	1725.12
507.732	1726.12
508.187	1670.12
508.643	1707.12
509.098	1744.12
509.553	1774.12
510.009	1799.12
510.464	1861.12
510.919	1894.12
511.375	1852.12
511.83	1846.12
512.285	1924.12
512.74	1948.12
513.195	1971.12
513.65	1994.12
514.105	1993.12
514.56	2018.12
515.015	2082.12
515.47	2067.12
515.925	2052.12
516.38	2080.12
516.835	2088.12
517.29	2040.12
517.745	2025.12
518.2	2038.12
518.655	2004.12
519.109	1941.12
519.564	1954.12
520.019	1936.12
520.474	1906.12
520.928	1876.12
521.383	1850.12
521.838	1883.12
522.292	1871.12
522.747	1861.12
523.201	1874.12
523.656	1827.12
524.11	1847.12
524.565	1729.12
525.019	1795.12
525.474	1816.12
525.928	1770.12
526.382	1747.12
526.837	1801.12
527.291	1784.12
527.745	1742.12
528.2	1826.12
528.654	1830.12
529.108	1778.12
529.562	1801.12
530.016	1801.12
530.47	1806.12
530.925	1812.12
531.379	1786.12
531.833	1803.12
532.287	1826.12
532.741	1822.12
533.195	1768.12
533.649	1805.12
534.103	1810.12
534.556	1792.12
535.01	1824.12
535.464	1788.12
535.918	1778.12
536.372	1815.12
536.826	1792.12
537.279	1799.12
537.733	1825.12
538.187	1824.12
538.64	1789.12
539.094	1824.12
539.548	1834.12
540.001	1850.12
540.455	1791.12
540.908	1862.12
541.362	1866.12
541.815	1905.12
542.269	1964.12
542.722	1926.12
543.175	1981.12
543.629	1964.12
544.082	1940.12
544.536	1957.12
544.989	1973.12
545.442	2010.12
545.895	2002.12
546.349	2010.12
546.802	2016.12
547.255	2036.12
547.708	2006.12
548.161	2058.12
548.614	2063.12
549.067	2061.12
549.52	2104.12
549.973	2009.12
550.426	2082.12
550.879	2022.12
551.332	1982.12
551.785	1988.12
552.238	2029.12
552.691	2068.12
553.144	2091.12
553.596	2085.12
554.049	2104.12
554.502	2176.12
554.955	2234.12
555.407	2265.12
555.86	2214.12
556.313	2163.12
556.765	2201.12
557.218	2202.12
557.67	2125.12
558.123	2156.12
558.576	2129.12
559.028	2119.12
559.48	2128.12
559.933	2143.12
560.385	2060.12
560.838	1988.12
561.29	1989.12
561.742	1949.12
562.195	1852.12
562.647	1857.12
563.099	1830.12
563.551	1866.12
564.004	1888.12
564.456	1832.12
564.908	1802.12
565.36	1803.12
565.812	1742.12
566.264	1715.12
566.716	1718.12
567.168	1670.12
567.62	1643.12
568.072	1657.12
568.524	1642.12
568.976	1630.12
569.428	1618.12
569.88	1618.12
570.332	1653.12
570.784	1623.12
571.235	1660.12
571.687	1657.12
572.139	1652.12
572.59	1674.12
573.042	1701.12
573.494	1722.12
573.945	1702.12
574.397	1637.12
574.849	1666.12
575.3	1609.12
575.752	1644.12
576.203	1573.12
576.655	1634.12
577.106	1570.12
577.557	1585.12
578.009	1519.12
578.46	1550.12
578.912	1577.12
579.363	1564.12
579.814	1510.12
580.265	1515.12
580.717	1565.12
581.168	1553.12
581.619	1556.12
582.07	1580.12
582.521	1577.12
582.972	1575.12
583.423	1571.12
583.875	1582.12
584.326	1599.12
584.777	1631.12
585.227	1668.12
585.678	1637.12
586.129	1675.12
586.58	1682.12
587.031	1720.12
587.482	1774.12
587.933	1802.12
588.384	1826.12
588.834	1809.12
589.285	1802.12
589.736	1779.12
590.186	1740.12
590.637	1756.12
591.088	1698.12
591.538	1687.12
591.989	1630.12
592.439	1657.12
592.89	1612.12
593.34	1605.12
593.791	1635.12
594.241	1602.12
594.692	1570.12
595.142	1561.12
595.593	1587.12
596.043	1534.12
596.493	1639.12
596.943	1590.12
597.394	1674.12
597.844	1623.12
598.294	1700.12
598.744	1766.12
599.195	1840.12
599.645	1922.12
600.095	2085.12
600.545	2164.12
600.995	2255.12
601.445	2329.12
601.895	2492.12
602.345	2626.12
602.795	2527.12
603.245	2478.12
603.695	2362.12
604.145	2168.12
604.594	2048.12
605.044	1946.12
605.494	1825.12
605.944	1737.12
606.393	1644.12
606.843	1648.12
607.293	1629.12
607.743	1627.12
608.192	1630.12
608.642	1622.12
609.091	1652.12
609.541	1661.12
609.99	1669.12
610.44	1578.12
610.889	1590.12
611.339	1541.12
611.788	1554.12
612.238	1612.12
612.687	1568.12
613.136	1629.12
613.586	1601.12
614.035	1545.12
614.484	1596.12
614.933	1580.12
615.383	1589.12
615.832	1500.12
616.281	1492.12
616.73	1460.12
617.179	1412.12
617.628	1378.12
618.077	1404.12
618.526	1360.12
618.975	1341.12
619.424	1346.12
619.873	1276.12
620.322	1366.12
620.771	1365.12
621.22	1282.12
621.669	1246.12
622.118	1270.12
622.567	1270.12
623.015	1223.12
623.464	1217.12
623.913	1215.12
624.361	1218.12
624.81	1201.12
625.259	1204.12
625.707	1196.12
626.156	1223.12
626.604	1234.12
627.053	1232.12
627.501	1233.12
627.95	1257.12
628.398	1283.12
628.847	1254.12
629.295	1227.12
629.744	1191.12
630.192	1178.12
630.64	1209.12
631.089	1164.12
631.537	1146.12
631.985	1130.12
632.433	1126.12
632.881	1108.12
633.33	1127.12
633.778	1103.12
634.226	1145.12
634.674	1130.12
635.122	1120.12
635.57	1148.12
636.018	1132.12
636.466	1170.12
636.914	1127.12
637.362	1169.12
637.81	1187.12
638.258	1246.12
638.705	1222.12
639.153	1285.12
639.601	1295.12
640.049	1321.12
640.497	1374.12
640.944	1346.12
641.392	1292.12
641.84	1254.12
642.287	1166.12
642.735	1122.12
643.182	1094.12
643.63	1074.12
644.078	1094.12
644.525	1063.12
644.973	1096.12
645.42	1096.12
645.867	1063.12
646.315	1103.12
646.762	1094.12
647.21	1111.12
647.657	1092.12
648.104	1074.12
648.551	1065.12
648.999	1033.12
649.446	1052.12
649.893	1022.12
650.34	1025.12
650.787	1065.12
651.234	1137.12
651.682	1156.12
652.129	1279.12
652.576	1424.12
653.023	1650.12
653.47	1800.12
653.917	1889.12
654.363	1906.12
654.81	1991.12
655.257	2120.12
655.704	1774.12
656.151	1351.12
656.598	1183.12
657.044	1078.12
657.491	1065.12
657.938	1065.12
658.385	1042.12
658.831	998.12
659.278	972.12
659.724	986.12
660.171	986.12
660.618	950.12
661.064	950.12
661.511	956.12
661.957	950.12
662.404	931.12
662.85	989.12
663.296	977.12
663.743	975.12
664.189	959.12
664.635	976.12
665.082	952.12
665.528	957.12
665.974	930.12
666.42	936.12
666.867	954.12
667.313	897.12
667.759	893.12
668.205	900.12
668.651	903.12
669.097	888.12
669.543	896.12
669.989	918.12
670.435	938.12
670.881	919.12
671.327	936.12
671.773	1040.12
672.219	1109.12
672.665	1189.12
673.11	1237.12
673.556	1270.12
674.002	1346.12
674.448	1393.12
674.893	1186.12
675.339	1014.12
675.785	933.12
676.23	862.12
676.676	851.12
677.122	833.12
677.567	813.12
678.013	803.12
678.458	784.12
678.904	764.12
679.349	772.12
679.794	790.12
680.24	749.12
680.685	734.12
681.131	732.12
681.576	789.12
682.021	745.12
682.466	776.12
682.912	785.12
683.357	821.12
683.802	840.12
684.247	918.12
684.692	1026.12
685.137	1076.12
685.583	1107.12
686.028	1120.12
686.473	1098.12
686.918	961.12
687.363	916.12
687.807	837.12
688.252	791.12
688.697	770.12
689.142	726.12
689.587	732.12
690.032	729.12
690.477	759.12
690.921	840.12
691.366	857.12
691.811	944.12
692.255	966.12
692.7	1108.12
693.145	1442.12
693.589	2230.12
694.034	2938.12
694.478	3393.12
694.923	3023.12
695.367	3804.12
695.812	3450.12
696.256	1364.12
696.701	890.12
697.145	794.12
697.59	755.12
698.034	720.12
698.478	722.12
698.922	722.12
699.367	724.12
699.811	771.12
700.255	781.12
700.699	906.12
701.143	989.12
701.588	1000.12
702.032	1106.12
702.476	1118.12
702.92	1154.12
703.364	1323.12
703.808	1976.12
704.252	2766.12
704.696	3124.12
705.14	2966.12
705.584	3771.12
706.027	2922.12
706.471	1336.12
706.915	911.12
707.359	797.12
707.803	729.12
708.246	739.12
708.69	728.12
709.134	686.12
709.577	668.12
710.021	716.12
710.465	689.12
710.908	677.12
711.352	705.12
711.795	746.12
712.239	834.12
712.682	870.12
713.126	854.12
713.569	914.12
714.012	830.12
714.456	713.12
714.899	675.12
715.342	644.12
715.786	614.12
716.229	591.12
716.672	597.12
717.115	589.12
717.558	575.12
718.002	589.12
718.445	609.12
718.888	633.12
719.331	667.12
719.774	664.12
720.217	681.12
720.66	629.12
721.103	621.12
721.546	570.12
721.989	558.12
722.432	546.12
722.874	556.12
723.317	563.12
723.76	593.12
724.203	670.12
724.645	877.12
725.088	1122.12
725.531	1151.12
725.974	1156.12
726.416	1228.12
726.859	768.12
727.301	577.12
727.744	547.12
728.187	574.12
728.629	539.12
729.071	547.12
729.514	610.12
729.956	636.12
730.399	646.12
730.841	643.12
731.283	616.12
731.726	600.12
732.168	606.12
732.61	643.12
733.053	687.12
733.495	756.12
733.937	789.12
734.379	938.12
734.821	1106.12
735.263	1589.12
735.705	2739.12
736.148	4587.12
736.59	5384.12
737.032	4959.12
737.474	5382.12
737.916	2456.12
738.357	1179.12
738.799	804.12
739.241	698.12
739.683	699.12
740.125	698.12
740.567	709.12
741.008	718.12
741.45	755.12
741.892	812.12
742.334	820.12
742.775	833.12
743.217	797.12
