Data from 20170802-ORNL-NYSim-Air_HRD10391_10-36-30-605.txt Node
Date: Wed Aug 02 10:36:30 EDT 2017
User: Ender
Spectrometer: HR+D1039
Trigger mode: 0
Integration Time (sec): 3.750000E-3
Scans to average: 1
Electric dark correction enabled: true
Nonlinearity correction enabled: false
Boxcar width: 0
XAxis mode: Wavelengths
Number of Pixels in Spectrum: 2048
>>>>>Begin Spectral Data<<<<<
187.836	-12.44
188.309	-12.44
188.782	-12.44
189.255	-3.44
189.728	-1.44
190.201	-13.44
190.674	-3.44
191.147	-13.44
191.619	1.56
192.092	-10.44
192.565	-10.44
193.038	0.56
193.511	5.56
193.984	10.56
194.456	21.56
194.929	7.56
195.402	5.56
195.874	15.56
196.347	26.56
196.82	17.56
197.292	50.56
197.765	24.56
198.237	31.56
198.71	29.56
199.182	36.56
199.655	47.56
200.127	50.56
200.6	43.56
201.072	69.56
201.544	74.56
202.017	63.56
202.489	47.56
202.961	69.56
203.433	55.56
203.906	58.56
204.378	71.56
204.85	74.56
205.322	73.56
205.794	74.56
206.266	71.56
206.739	75.56
207.211	78.56
207.683	92.56
208.155	77.56
208.627	86.56
209.099	77.56
209.57	98.56
210.042	75.56
210.514	75.56
210.986	79.56
211.458	76.56
211.93	80.56
212.402	85.56
212.873	92.56
213.345	81.56
213.817	79.56
214.288	65.56
214.76	94.56
215.232	91.56
215.703	70.56
216.175	87.56
216.646	77.56
217.118	75.56
217.589	91.56
218.061	73.56
218.532	89.56
219.004	61.56
219.475	89.56
219.946	93.56
220.418	77.56
220.889	91.56
221.36	76.56
221.832	81.56
222.303	87.56
222.774	85.56
223.245	81.56
223.717	85.56
224.188	76.56
224.659	76.56
225.13	78.56
225.601	52.56
226.072	85.56
226.543	84.56
227.014	79.56
227.485	69.56
227.956	91.56
228.427	82.56
228.898	80.56
229.369	77.56
229.839	83.56
230.31	71.56
230.781	69.56
231.252	80.56
231.722	92.56
232.193	91.56
232.664	89.56
233.135	85.56
233.605	90.56
234.076	79.56
234.546	67.56
235.017	92.56
235.487	97.56
235.958	73.56
236.428	66.56
236.899	94.56
237.369	87.56
237.84	91.56
238.31	92.56
238.78	82.56
239.251	75.56
239.721	82.56
240.191	78.56
240.662	86.56
241.132	87.56
241.602	80.56
242.072	89.56
242.542	81.56
243.013	91.56
243.483	89.56
243.953	100.56
244.423	89.56
244.893	98.56
245.363	102.56
245.833	97.56
246.303	81.56
246.773	101.56
247.243	88.56
247.712	109.56
248.182	94.56
248.652	107.56
249.122	88.56
249.592	91.56
250.061	100.56
250.531	98.56
251.001	85.56
251.471	97.56
251.94	89.56
252.41	92.56
252.879	93.56
253.349	91.56
253.818	96.56
254.288	96.56
254.757	98.56
255.227	110.56
255.696	93.56
256.166	96.56
256.635	80.56
257.105	103.56
257.574	98.56
258.043	77.56
258.513	109.56
258.982	115.56
259.451	119.56
259.92	86.56
260.389	97.56
260.859	97.56
261.328	115.56
261.797	99.56
262.266	100.56
262.735	89.56
263.204	103.56
263.673	87.56
264.142	87.56
264.611	90.56
265.08	99.56
265.549	100.56
266.018	99.56
266.487	86.56
266.955	110.56
267.424	94.56
267.893	106.56
268.362	111.56
268.83	113.56
269.299	112.56
269.768	98.56
270.236	105.56
270.705	101.56
271.174	97.56
271.642	103.56
272.111	115.56
272.579	90.56
273.048	95.56
273.516	105.56
273.985	109.56
274.453	117.56
274.922	103.56
275.39	129.56
275.858	108.56
276.327	104.56
276.795	99.56
277.263	121.56
277.731	111.56
278.2	132.56
278.668	113.56
279.136	110.56
279.604	143.56
280.072	114.56
280.54	102.56
281.008	118.56
281.477	101.56
281.945	119.56
282.413	115.56
282.881	106.56
283.348	130.56
283.816	102.56
284.284	117.56
284.752	117.56
285.22	120.56
285.688	116.56
286.156	135.56
286.623	143.56
287.091	135.56
287.559	133.56
288.026	133.56
288.494	140.56
288.962	118.56
289.429	118.56
289.897	104.56
290.364	121.56
290.832	128.56
291.3	137.56
291.767	143.56
292.234	125.56
292.702	140.56
293.169	147.56
293.637	129.56
294.104	131.56
294.571	133.56
295.039	139.56
295.506	116.56
295.973	128.56
296.44	137.56
296.908	124.56
297.375	119.56
297.842	141.56
298.309	139.56
298.776	129.56
299.243	138.56
299.71	147.56
300.177	130.56
300.644	143.56
301.111	134.56
301.578	149.56
302.045	133.56
302.512	151.56
302.979	135.56
303.446	145.56
303.913	133.56
304.379	150.56
304.846	153.56
305.313	152.56
305.78	158.56
306.246	144.56
306.713	143.56
307.18	170.56
307.646	159.56
308.113	160.56
308.579	161.56
309.046	147.56
309.512	164.56
309.979	135.56
310.445	149.56
310.912	154.56
311.378	159.56
311.845	146.56
312.311	144.56
312.777	181.56
313.244	156.56
313.71	163.56
314.176	174.56
314.642	181.56
315.109	167.56
315.575	159.56
316.041	180.56
316.507	157.56
316.973	177.56
317.439	168.56
317.905	155.56
318.371	159.56
318.837	188.56
319.303	186.56
319.769	176.56
320.235	187.56
320.701	183.56
321.167	174.56
321.633	178.56
322.099	168.56
322.564	182.56
323.03	191.56
323.496	181.56
323.962	177.56
324.427	176.56
324.893	183.56
325.359	185.56
325.824	185.56
326.29	167.56
326.755	193.56
327.221	175.56
327.686	173.56
328.152	188.56
328.617	190.56
329.083	183.56
329.548	185.56
330.014	202.56
330.479	188.56
330.944	181.56
331.41	213.56
331.875	207.56
332.34	206.56
332.805	216.56
333.271	184.56
333.736	215.56
334.201	211.56
334.666	188.56
335.131	227.56
335.596	219.56
336.061	195.56
336.526	201.56
336.991	203.56
337.456	201.56
337.921	199.56
338.386	223.56
338.851	211.56
339.316	216.56
339.781	227.56
340.246	202.56
340.711	231.56
341.175	223.56
341.64	204.56
342.105	212.56
342.569	234.56
343.034	231.56
343.499	241.56
343.963	234.56
344.428	213.56
344.893	230.56
345.357	224.56
345.822	231.56
346.286	234.56
346.751	261.56
347.215	258.56
347.679	277.56
348.144	248.56
348.608	235.56
349.073	261.56
349.537	275.56
350.001	243.56
350.465	280.56
350.93	255.56
351.394	279.56
351.858	249.56
352.322	265.56
352.786	285.56
353.25	260.56
353.715	275.56
354.179	284.56
354.643	282.56
355.107	278.56
355.571	292.56
356.035	291.56
356.498	282.56
356.962	277.56
357.426	280.56
357.89	303.56
358.354	276.56
358.818	278.56
359.281	285.56
359.745	280.56
360.209	271.56
360.673	295.56
361.136	284.56
361.6	299.56
362.064	282.56
362.527	282.56
362.991	296.56
363.454	279.56
363.918	285.56
364.381	297.56
364.845	287.56
365.308	283.56
365.772	295.56
366.235	307.56
366.698	311.56
367.162	283.56
367.625	298.56
368.088	321.56
368.552	313.56
369.015	306.56
369.478	303.56
369.941	298.56
370.404	319.56
370.867	323.56
371.331	304.56
371.794	319.56
372.257	335.56
372.72	332.56
373.183	313.56
373.646	318.56
374.109	333.56
374.572	334.56
375.035	317.56
375.497	315.56
375.96	340.56
376.423	330.56
376.886	351.56
377.349	348.56
377.811	345.56
378.274	365.56
378.737	384.56
379.199	337.56
379.662	347.56
380.125	336.56
380.587	357.56
381.05	347.56
381.512	376.56
381.975	372.56
382.437	364.56
382.9	409.56
383.362	397.56
383.825	379.56
384.287	419.56
384.75	375.56
385.212	373.56
385.674	383.56
386.136	398.56
386.599	379.56
387.061	402.56
387.523	381.56
387.985	377.56
388.447	401.56
388.91	424.56
389.372	383.56
389.834	412.56
390.296	389.56
390.758	405.56
391.22	385.56
391.682	359.56
392.144	383.56
392.606	395.56
393.068	447.56
393.529	443.56
393.991	443.56
394.453	406.56
394.915	419.56
395.377	407.56
395.838	396.56
396.3	399.56
396.762	401.56
397.224	439.56
397.685	415.56
398.147	432.56
398.608	414.56
399.07	445.56
399.531	404.56
399.993	427.56
400.454	444.56
400.916	443.56
401.377	464.56
401.839	462.56
402.3	461.56
402.762	490.56
403.223	482.56
403.684	491.56
404.145	513.56
404.607	456.56
405.068	457.56
405.529	457.56
405.99	476.56
406.451	475.56
406.913	451.56
407.374	481.56
407.835	483.56
408.296	487.56
408.757	490.56
409.218	480.56
409.679	533.56
410.14	494.56
410.601	526.56
411.062	524.56
411.522	561.56
411.983	531.56
412.444	559.56
412.905	580.56
413.366	591.56
413.826	623.56
414.287	670.56
414.748	839.56
415.208	848.56
415.669	725.56
416.13	683.56
416.59	648.56
417.051	668.56
417.511	686.56
417.972	753.56
418.432	782.56
418.893	897.56
419.353	850.56
419.814	635.56
420.274	587.56
420.734	541.56
421.195	597.56
421.655	567.56
422.115	597.56
422.576	610.56
423.036	617.56
423.496	617.56
423.956	644.56
424.416	698.56
424.876	754.56
425.336	739.56
425.797	751.56
426.257	721.56
426.717	662.56
427.177	584.56
427.637	612.56
428.097	623.56
428.556	660.56
429.016	639.56
429.476	667.56
429.936	625.56
430.396	627.56
430.856	620.56
431.315	646.56
431.775	669.56
432.235	757.56
432.694	753.56
433.154	687.56
433.614	693.56
434.073	672.56
434.533	616.56
434.993	623.56
435.452	624.56
435.912	636.56
436.371	635.56
436.83	643.56
437.29	625.56
437.749	627.56
438.209	612.56
438.668	661.56
439.127	646.56
439.587	673.56
440.046	669.56
440.505	685.56
440.964	676.56
441.424	711.56
441.883	702.56
442.342	683.56
442.801	646.56
443.26	674.56
443.719	625.56
444.178	644.56
444.637	671.56
445.096	652.56
445.555	681.56
446.014	651.56
446.473	666.56
446.932	671.56
447.391	675.56
447.849	704.56
448.308	683.56
448.767	683.56
449.226	681.56
449.685	717.56
450.143	749.56
450.602	741.56
451.061	700.56
451.519	723.56
451.978	720.56
452.436	677.56
452.895	684.56
453.353	675.56
453.812	700.56
454.27	673.56
454.729	722.56
455.187	697.56
455.646	691.56
456.104	717.56
456.562	716.56
457.021	720.56
457.479	706.56
457.937	734.56
458.395	728.56
458.854	707.56
459.312	717.56
459.77	727.56
460.228	722.56
460.686	735.56
461.144	745.56
461.602	712.56
462.06	716.56
462.518	714.56
462.976	752.56
463.434	758.56
463.892	792.56
464.35	781.56
464.808	769.56
465.266	776.56
465.724	825.56
466.181	805.56
466.639	787.56
467.097	821.56
467.555	875.56
468.012	857.56
468.47	898.56
468.928	909.56
469.385	908.56
469.843	895.56
470.3	909.56
470.758	959.56
471.215	943.56
471.673	954.56
472.13	960.56
472.588	984.56
473.045	994.56
473.503	1026.56
473.96	1010.56
474.417	1027.56
474.875	1047.56
475.332	1148.56
475.789	1119.56
476.246	1121.56
476.704	1144.56
477.161	1130.56
477.618	1144.56
478.075	1180.56
478.532	1215.56
478.989	1235.56
479.446	1295.56
479.903	1299.56
480.36	1305.56
480.817	1309.56
481.274	1321.56
481.731	1333.56
482.188	1364.56
482.645	1421.56
483.102	1435.56
483.558	1452.56
484.015	1478.56
484.472	1511.56
484.929	1489.56
485.385	1496.56
485.842	1456.56
486.299	1516.56
486.755	1508.56
487.212	1474.56
487.668	1439.56
488.125	1403.56
488.582	1434.56
489.038	1415.56
489.494	1486.56
489.951	1469.56
490.407	1440.56
490.864	1455.56
491.32	1469.56
491.776	1467.56
492.233	1510.56
492.689	1451.56
493.145	1447.56
493.602	1462.56
494.058	1515.56
494.514	1479.56
494.97	1503.56
495.426	1542.56
495.882	1528.56
496.338	1516.56
496.794	1559.56
497.251	1589.56
497.707	1657.56
498.163	1586.56
498.618	1582.56
499.074	1585.56
499.53	1636.56
499.986	1596.56
500.442	1607.56
500.898	1594.56
501.354	1604.56
501.809	1603.56
502.265	1616.56
502.721	1612.56
503.177	1598.56
503.632	1643.56
504.088	1627.56
504.543	1689.56
504.999	1693.56
505.455	1676.56
505.91	1640.56
506.366	1704.56
506.821	1640.56
507.277	1639.56
507.732	1637.56
508.187	1639.56
508.643	1671.56
509.098	1682.56
509.553	1739.56
510.009	1711.56
510.464	1790.56
510.919	1782.56
511.375	1788.56
511.83	1801.56
512.285	1799.56
512.74	1836.56
513.195	1902.56
513.65	1918.56
514.105	1949.56
514.56	1970.56
515.015	2012.56
515.47	2039.56
515.925	1999.56
516.38	2002.56
516.835	1981.56
517.29	1977.56
517.745	2025.56
518.2	1965.56
518.655	1926.56
519.109	1897.56
519.564	1897.56
520.019	1887.56
520.474	1849.56
520.928	1824.56
521.383	1876.56
521.838	1821.56
522.292	1801.56
522.747	1849.56
523.201	1801.56
523.656	1789.56
524.11	1735.56
524.565	1736.56
525.019	1747.56
525.474	1723.56
525.928	1726.56
526.382	1713.56
526.837	1793.56
527.291	1788.56
527.745	1756.56
528.2	1754.56
528.654	1696.56
529.108	1755.56
529.562	1760.56
530.016	1734.56
530.47	1752.56
530.925	1744.56
531.379	1753.56
531.833	1727.56
532.287	1734.56
532.741	1712.56
533.195	1717.56
533.649	1729.56
534.103	1739.56
534.556	1749.56
535.01	1731.56
535.464	1756.56
535.918	1707.56
536.372	1808.56
536.826	1756.56
537.279	1755.56
537.733	1744.56
538.187	1731.56
538.64	1750.56
539.094	1749.56
539.548	1782.56
540.001	1786.56
540.455	1793.56
540.908	1818.56
541.362	1797.56
541.815	1834.56
542.269	1887.56
542.722	1880.56
543.175	1882.56
543.629	1925.56
544.082	1934.56
544.536	1970.56
544.989	1921.56
545.442	1951.56
545.895	1935.56
546.349	1937.56
546.802	1992.56
547.255	1981.56
547.708	1973.56
548.161	1986.56
548.614	2011.56
549.067	2015.56
549.52	2014.56
549.973	2001.56
550.426	1956.56
550.879	1957.56
551.332	1936.56
551.785	1983.56
552.238	2017.56
552.691	1966.56
553.144	2037.56
553.596	2033.56
554.049	2095.56
554.502	2114.56
554.955	2158.56
555.407	2267.56
555.86	2176.56
556.313	2151.56
556.765	2118.56
557.218	2069.56
557.67	2067.56
558.123	2076.56
558.576	2029.56
559.028	2035.56
559.48	2132.56
559.933	2124.56
560.385	2053.56
560.838	1913.56
561.29	1904.56
561.742	1923.56
562.195	1822.56
562.647	1858.56
563.099	1866.56
563.551	1805.56
564.004	1822.56
564.456	1867.56
564.908	1785.56
565.36	1713.56
565.812	1735.56
566.264	1697.56
566.716	1652.56
567.168	1625.56
567.62	1644.56
568.072	1604.56
568.524	1621.56
568.976	1672.56
569.428	1614.56
569.88	1572.56
570.332	1635.56
570.784	1616.56
571.235	1596.56
571.687	1635.56
572.139	1617.56
572.59	1607.56
573.042	1639.56
573.494	1650.56
573.945	1638.56
574.397	1588.56
574.849	1559.56
575.3	1563.56
575.752	1585.56
576.203	1501.56
576.655	1535.56
577.106	1547.56
577.557	1559.56
578.009	1547.56
578.46	1545.56
578.912	1500.56
579.363	1491.56
579.814	1533.56
580.265	1517.56
580.717	1556.56
581.168	1531.56
581.619	1571.56
582.07	1570.56
582.521	1559.56
582.972	1510.56
583.423	1561.56
583.875	1556.56
584.326	1552.56
584.777	1587.56
585.227	1624.56
585.678	1605.56
586.129	1584.56
586.58	1661.56
587.031	1701.56
587.482	1693.56
587.933	1713.56
588.384	1749.56
588.834	1719.56
589.285	1767.56
589.736	1726.56
590.186	1741.56
590.637	1685.56
591.088	1707.56
591.538	1638.56
591.989	1643.56
592.439	1599.56
592.89	1622.56
593.34	1616.56
593.791	1579.56
594.241	1552.56
594.692	1535.56
595.142	1563.56
595.593	1542.56
596.043	1610.56
596.493	1582.56
596.943	1550.56
597.394	1590.56
597.844	1637.56
598.294	1648.56
598.744	1753.56
599.195	1777.56
599.645	1873.56
600.095	1964.56
600.545	2119.56
600.995	2224.56
601.445	2271.56
601.895	2412.56
602.345	2603.56
602.795	2516.56
603.245	2353.56
603.695	2226.56
604.145	2097.56
604.594	2024.56
605.044	1909.56
605.494	1807.56
605.944	1647.56
606.393	1645.56
606.843	1655.56
607.293	1655.56
607.743	1575.56
608.192	1602.56
608.642	1615.56
609.091	1636.56
609.541	1645.56
609.99	1661.56
610.44	1564.56
610.889	1547.56
611.339	1547.56
611.788	1538.56
612.238	1576.56
612.687	1543.56
613.136	1536.56
613.586	1507.56
614.035	1534.56
614.484	1543.56
614.933	1578.56
615.383	1508.56
615.832	1508.56
616.281	1449.56
616.73	1463.56
617.179	1441.56
617.628	1366.56
618.077	1328.56
618.526	1364.56
618.975	1344.56
619.424	1337.56
619.873	1288.56
620.322	1304.56
620.771	1291.56
621.22	1275.56
621.669	1243.56
622.118	1216.56
622.567	1197.56
623.015	1231.56
623.464	1178.56
623.913	1183.56
624.361	1177.56
624.81	1207.56
625.259	1192.56
625.707	1163.56
626.156	1204.56
626.604	1191.56
627.053	1179.56
627.501	1217.56
627.95	1205.56
628.398	1223.56
628.847	1232.56
629.295	1173.56
629.744	1195.56
630.192	1199.56
630.64	1190.56
631.089	1115.56
631.537	1123.56
631.985	1079.56
632.433	1071.56
632.881	1086.56
633.33	1105.56
633.778	1091.56
634.226	1115.56
634.674	1124.56
635.122	1090.56
635.57	1142.56
636.018	1135.56
636.466	1149.56
636.914	1115.56
637.362	1153.56
637.81	1157.56
638.258	1206.56
638.705	1177.56
639.153	1233.56
639.601	1244.56
640.049	1277.56
640.497	1332.56
640.944	1369.56
641.392	1283.56
641.84	1225.56
642.287	1115.56
642.735	1111.56
643.182	1069.56
643.63	1067.56
644.078	1059.56
644.525	1055.56
644.973	1084.56
645.42	1039.56
645.867	1089.56
646.315	1085.56
646.762	1096.56
647.21	1078.56
647.657	1071.56
648.104	1081.56
648.551	1035.56
648.999	1027.56
649.446	1041.56
649.893	1015.56
650.34	1045.56
650.787	1073.56
651.234	1086.56
651.682	1127.56
652.129	1256.56
652.576	1401.56
653.023	1629.56
653.47	1759.56
653.917	1845.56
654.363	1919.56
654.81	1934.56
655.257	1988.56
655.704	1724.56
656.151	1329.56
656.598	1192.56
657.044	1079.56
657.491	1035.56
657.938	1029.56
658.385	994.56
658.831	973.56
659.278	997.56
659.724	971.56
660.171	946.56
660.618	945.56
661.064	959.56
661.511	915.56
661.957	939.56
662.404	932.56
662.85	941.56
663.296	956.56
663.743	950.56
664.189	936.56
664.635	976.56
665.082	980.56
665.528	943.56
665.974	938.56
666.42	945.56
666.867	937.56
667.313	923.56
667.759	890.56
668.205	863.56
668.651	881.56
669.097	859.56
669.543	874.56
669.989	851.56
670.435	875.56
670.881	925.56
671.327	939.56
671.773	983.56
672.219	1081.56
672.665	1175.56
673.11	1222.56
673.556	1227.56
674.002	1274.56
674.448	1347.56
674.893	1171.56
675.339	985.56
675.785	919.56
676.23	861.56
676.676	804.56
677.122	798.56
677.567	762.56
678.013	803.56
678.458	776.56
678.904	783.56
679.349	769.56
679.794	782.56
680.24	722.56
680.685	745.56
681.131	737.56
681.576	756.56
682.021	754.56
682.466	743.56
682.912	753.56
683.357	798.56
683.802	844.56
684.247	913.56
684.692	981.56
685.137	1071.56
685.583	1071.56
686.028	1092.56
686.473	1123.56
686.918	959.56
687.363	881.56
687.807	825.56
688.252	809.56
688.697	760.56
689.142	705.56
689.587	687.56
690.032	731.56
690.477	741.56
690.921	769.56
691.366	837.56
691.811	908.56
692.255	925.56
692.7	1065.56
693.145	1422.56
693.589	2106.56
694.034	2910.56
694.478	3216.56
694.923	3045.56
695.367	3774.56
695.812	3349.56
696.256	1309.56
696.701	839.56
697.145	793.56
697.59	722.56
698.034	701.56
698.478	717.56
698.922	713.56
699.367	730.56
699.811	770.56
700.255	804.56
700.699	873.56
701.143	966.56
701.588	1039.56
702.032	1076.56
702.476	1122.56
702.92	1168.56
703.364	1323.56
703.808	1901.56
704.252	2705.56
704.696	3087.56
705.14	2863.56
705.584	3654.56
706.027	2933.56
706.471	1336.56
706.915	908.56
707.359	789.56
707.803	745.56
708.246	711.56
708.69	680.56
709.134	689.56
709.577	657.56
710.021	679.56
710.465	661.56
710.908	657.56
711.352	669.56
711.795	739.56
712.239	806.56
712.682	869.56
713.126	822.56
713.569	883.56
714.012	807.56
714.456	674.56
714.899	661.56
715.342	629.56
715.786	609.56
716.229	595.56
716.672	560.56
717.115	551.56
717.558	573.56
718.002	564.56
718.445	567.56
718.888	611.56
719.331	639.56
719.774	640.56
720.217	669.56
720.66	635.56
721.103	607.56
721.546	579.56
721.989	552.56
722.432	569.56
722.874	549.56
723.317	545.56
723.76	563.56
724.203	641.56
724.645	832.56
725.088	1073.56
725.531	1129.56
725.974	1098.56
726.416	1215.56
726.859	757.56
727.301	612.56
727.744	539.56
728.187	590.56
728.629	559.56
729.071	557.56
729.514	591.56
729.956	631.56
730.399	615.56
730.841	632.56
731.283	611.56
731.726	593.56
732.168	601.56
732.61	627.56
733.053	670.56
733.495	755.56
733.937	786.56
734.379	941.56
734.821	1073.56
735.263	1524.56
735.705	2679.56
736.148	4475.56
736.59	5268.56
737.032	4971.56
737.474	5314.56
737.916	2426.56
738.357	1147.56
738.799	799.56
739.241	703.56
739.683	692.56
740.125	683.56
740.567	717.56
741.008	734.56
741.45	767.56
741.892	799.56
742.334	831.56
742.775	806.56
743.217	815.56
