Data from 20170802-ORNL-NYSim-Air_HRD10391_10-36-29-604.txt Node
Date: Wed Aug 02 10:36:29 EDT 2017
User: Ender
Spectrometer: HR+D1039
Trigger mode: 0
Integration Time (sec): 3.750000E-3
Scans to average: 1
Electric dark correction enabled: true
Nonlinearity correction enabled: false
Boxcar width: 0
XAxis mode: Wavelengths
Number of Pixels in Spectrum: 2048
>>>>>Begin Spectral Data<<<<<
187.836	-21.25
188.309	-21.25
188.782	-21.25
189.255	-2.25
189.728	9.75
190.201	-6.25
190.674	-17.25
191.147	-12.25
191.619	0.75
192.092	-0.25
192.565	-8.25
193.038	5.75
193.511	9.75
193.984	-6.25
194.456	-3.25
194.929	11.75
195.402	17.75
195.874	21.75
196.347	9.75
196.82	27.75
197.292	31.75
197.765	42.75
198.237	28.75
198.71	42.75
199.182	27.75
199.655	59.75
200.127	67.75
200.6	55.75
201.072	75.75
201.544	67.75
202.017	69.75
202.489	64.75
202.961	65.75
203.433	59.75
203.906	60.75
204.378	84.75
204.85	80.75
205.322	81.75
205.794	63.75
206.266	92.75
206.739	95.75
207.211	88.75
207.683	103.75
208.155	77.75
208.627	73.75
209.099	88.75
209.57	93.75
210.042	82.75
210.514	90.75
210.986	79.75
211.458	77.75
211.93	97.75
212.402	89.75
212.873	77.75
213.345	86.75
213.817	97.75
214.288	85.75
214.76	90.75
215.232	66.75
215.703	71.75
216.175	89.75
216.646	99.75
217.118	82.75
217.589	88.75
218.061	86.75
218.532	87.75
219.004	71.75
219.475	88.75
219.946	71.75
220.418	84.75
220.889	69.75
221.36	93.75
221.832	74.75
222.303	85.75
222.774	86.75
223.245	80.75
223.717	74.75
224.188	83.75
224.659	72.75
225.13	70.75
225.601	87.75
226.072	93.75
226.543	83.75
227.014	85.75
227.485	102.75
227.956	78.75
228.427	86.75
228.898	72.75
229.369	89.75
229.839	69.75
230.31	89.75
230.781	83.75
231.252	83.75
231.722	93.75
232.193	93.75
232.664	95.75
233.135	86.75
233.605	85.75
234.076	87.75
234.546	97.75
235.017	79.75
235.487	87.75
235.958	80.75
236.428	86.75
236.899	81.75
237.369	86.75
237.84	93.75
238.31	95.75
238.78	92.75
239.251	88.75
239.721	81.75
240.191	98.75
240.662	94.75
241.132	73.75
241.602	79.75
242.072	78.75
242.542	79.75
243.013	81.75
243.483	82.75
243.953	90.75
244.423	102.75
244.893	91.75
245.363	88.75
245.833	81.75
246.303	82.75
246.773	98.75
247.243	90.75
247.712	97.75
248.182	92.75
248.652	111.75
249.122	97.75
249.592	100.75
250.061	90.75
250.531	85.75
251.001	93.75
251.471	90.75
251.94	106.75
252.41	92.75
252.879	103.75
253.349	104.75
253.818	105.75
254.288	84.75
254.757	107.75
255.227	105.75
255.696	81.75
256.166	111.75
256.635	105.75
257.105	81.75
257.574	103.75
258.043	95.75
258.513	92.75
258.982	100.75
259.451	93.75
259.92	103.75
260.389	116.75
260.859	108.75
261.328	116.75
261.797	105.75
262.266	93.75
262.735	91.75
263.204	116.75
263.673	107.75
264.142	95.75
264.611	102.75
265.08	103.75
265.549	104.75
266.018	97.75
266.487	96.75
266.955	112.75
267.424	97.75
267.893	120.75
268.362	105.75
268.83	97.75
269.299	99.75
269.768	98.75
270.236	122.75
270.705	103.75
271.174	115.75
271.642	114.75
272.111	115.75
272.579	124.75
273.048	106.75
273.516	99.75
273.985	103.75
274.453	109.75
274.922	105.75
275.39	120.75
275.858	93.75
276.327	124.75
276.795	106.75
277.263	111.75
277.731	122.75
278.2	111.75
278.668	109.75
279.136	117.75
279.604	116.75
280.072	109.75
280.54	123.75
281.008	114.75
281.477	127.75
281.945	123.75
282.413	119.75
282.881	122.75
283.348	130.75
283.816	105.75
284.284	112.75
284.752	115.75
285.22	117.75
285.688	110.75
286.156	140.75
286.623	122.75
287.091	128.75
287.559	121.75
288.026	142.75
288.494	116.75
288.962	120.75
289.429	117.75
289.897	132.75
290.364	125.75
290.832	129.75
291.3	141.75
291.767	128.75
292.234	129.75
292.702	130.75
293.169	133.75
293.637	130.75
294.104	150.75
294.571	141.75
295.039	131.75
295.506	118.75
295.973	150.75
296.44	136.75
296.908	123.75
297.375	131.75
297.842	143.75
298.309	138.75
298.776	141.75
299.243	138.75
299.71	129.75
300.177	157.75
300.644	141.75
301.111	144.75
301.578	133.75
302.045	145.75
302.512	133.75
302.979	137.75
303.446	130.75
303.913	130.75
304.379	141.75
304.846	133.75
305.313	128.75
305.78	149.75
306.246	157.75
306.713	156.75
307.18	154.75
307.646	135.75
308.113	166.75
308.579	162.75
309.046	166.75
309.512	162.75
309.979	158.75
310.445	167.75
310.912	155.75
311.378	171.75
311.845	152.75
312.311	157.75
312.777	145.75
313.244	165.75
313.71	175.75
314.176	178.75
314.642	163.75
315.109	160.75
315.575	159.75
316.041	163.75
316.507	169.75
316.973	169.75
317.439	188.75
317.905	197.75
318.371	173.75
318.837	156.75
319.303	161.75
319.769	197.75
320.235	197.75
320.701	175.75
321.167	186.75
321.633	168.75
322.099	170.75
322.564	178.75
323.03	189.75
323.496	185.75
323.962	163.75
324.427	201.75
324.893	193.75
325.359	179.75
325.824	181.75
326.29	196.75
326.755	189.75
327.221	185.75
327.686	182.75
328.152	194.75
328.617	212.75
329.083	187.75
329.548	182.75
330.014	204.75
330.479	194.75
330.944	203.75
331.41	203.75
331.875	205.75
332.34	195.75
332.805	213.75
333.271	190.75
333.736	199.75
334.201	222.75
334.666	212.75
335.131	208.75
335.596	210.75
336.061	209.75
336.526	201.75
336.991	191.75
337.456	236.75
337.921	207.75
338.386	225.75
338.851	210.75
339.316	225.75
339.781	223.75
340.246	183.75
340.711	224.75
341.175	241.75
341.64	236.75
342.105	222.75
342.569	220.75
343.034	233.75
343.499	206.75
343.963	220.75
344.428	229.75
344.893	259.75
345.357	215.75
345.822	223.75
346.286	242.75
346.751	227.75
347.215	257.75
347.679	254.75
348.144	263.75
348.608	259.75
349.073	256.75
349.537	273.75
350.001	258.75
350.465	234.75
350.93	260.75
351.394	284.75
351.858	283.75
352.322	281.75
352.786	277.75
353.25	295.75
353.715	261.75
354.179	276.75
354.643	289.75
355.107	299.75
355.571	294.75
356.035	294.75
356.498	285.75
356.962	287.75
357.426	306.75
357.89	277.75
358.354	278.75
358.818	278.75
359.281	289.75
359.745	294.75
360.209	293.75
360.673	274.75
361.136	270.75
361.6	280.75
362.064	280.75
362.527	296.75
362.991	304.75
363.454	309.75
363.918	324.75
364.381	296.75
364.845	296.75
365.308	284.75
365.772	285.75
366.235	295.75
366.698	314.75
367.162	302.75
367.625	309.75
368.088	323.75
368.552	320.75
369.015	318.75
369.478	317.75
369.941	309.75
370.404	324.75
370.867	330.75
371.331	315.75
371.794	328.75
372.257	333.75
372.72	316.75
373.183	314.75
373.646	321.75
374.109	321.75
374.572	359.75
375.035	335.75
375.497	337.75
375.96	343.75
376.423	349.75
376.886	356.75
377.349	355.75
377.811	364.75
378.274	345.75
378.737	333.75
379.199	337.75
379.662	370.75
380.125	352.75
380.587	355.75
381.05	371.75
381.512	379.75
381.975	391.75
382.437	387.75
382.9	368.75
383.362	353.75
383.825	390.75
384.287	408.75
384.75	382.75
385.212	365.75
385.674	372.75
386.136	364.75
386.599	394.75
387.061	386.75
387.523	404.75
387.985	408.75
388.447	386.75
388.91	417.75
389.372	422.75
389.834	415.75
390.296	401.75
390.758	387.75
391.22	398.75
391.682	383.75
392.144	403.75
392.606	389.75
393.068	407.75
393.529	436.75
393.991	433.75
394.453	419.75
394.915	436.75
395.377	411.75
395.838	423.75
396.3	411.75
396.762	395.75
397.224	411.75
397.685	403.75
398.147	395.75
398.608	421.75
399.07	441.75
399.531	431.75
399.993	435.75
400.454	459.75
400.916	477.75
401.377	461.75
401.839	453.75
402.3	467.75
402.762	487.75
403.223	520.75
403.684	510.75
404.145	521.75
404.607	480.75
405.068	497.75
405.529	473.75
405.99	451.75
406.451	480.75
406.913	483.75
407.374	490.75
407.835	470.75
408.296	486.75
408.757	513.75
409.218	503.75
409.679	499.75
410.14	501.75
410.601	529.75
411.062	519.75
411.522	540.75
411.983	546.75
412.444	551.75
412.905	575.75
413.366	585.75
413.826	596.75
414.287	685.75
414.748	785.75
415.208	833.75
415.669	687.75
416.13	639.75
416.59	621.75
417.051	695.75
417.511	690.75
417.972	758.75
418.432	782.75
418.893	894.75
419.353	823.75
419.814	642.75
420.274	590.75
420.734	583.75
421.195	599.75
421.655	572.75
422.115	563.75
422.576	583.75
423.036	595.75
423.496	614.75
423.956	644.75
424.416	682.75
424.876	735.75
425.336	749.75
425.797	728.75
426.257	732.75
426.717	672.75
427.177	597.75
427.637	610.75
428.097	592.75
428.556	649.75
429.016	689.75
429.476	675.75
429.936	617.75
430.396	655.75
430.856	646.75
431.315	641.75
431.775	669.75
432.235	743.75
432.694	740.75
433.154	674.75
433.614	697.75
434.073	675.75
434.533	624.75
434.993	619.75
435.452	619.75
435.912	636.75
436.371	613.75
436.83	655.75
437.29	650.75
437.749	628.75
438.209	636.75
438.668	640.75
439.127	641.75
439.587	686.75
440.046	636.75
440.505	656.75
440.964	680.75
441.424	666.75
441.883	699.75
442.342	657.75
442.801	675.75
443.26	634.75
443.719	671.75
444.178	657.75
444.637	658.75
445.096	670.75
445.555	688.75
446.014	644.75
446.473	676.75
446.932	644.75
447.391	672.75
447.849	696.75
448.308	691.75
448.767	736.75
449.226	705.75
449.685	714.75
450.143	731.75
450.602	718.75
451.061	699.75
451.519	706.75
451.978	688.75
452.436	661.75
452.895	707.75
453.353	683.75
453.812	676.75
454.27	689.75
454.729	677.75
455.187	702.75
455.646	697.75
456.104	736.75
456.562	742.75
457.021	726.75
457.479	706.75
457.937	693.75
458.395	733.75
458.854	701.75
459.312	709.75
459.77	715.75
460.228	735.75
460.686	736.75
461.144	761.75
461.602	745.75
462.06	733.75
462.518	750.75
462.976	760.75
463.434	757.75
463.892	761.75
464.35	775.75
464.808	817.75
465.266	800.75
465.724	815.75
466.181	821.75
466.639	824.75
467.097	826.75
467.555	857.75
468.012	861.75
468.47	866.75
468.928	900.75
469.385	899.75
469.843	923.75
470.3	879.75
470.758	924.75
471.215	938.75
471.673	943.75
472.13	1005.75
472.588	1010.75
473.045	986.75
473.503	998.75
473.96	1029.75
474.417	1041.75
474.875	1063.75
475.332	1063.75
475.789	1092.75
476.246	1102.75
476.704	1147.75
477.161	1119.75
477.618	1135.75
478.075	1194.75
478.532	1197.75
478.989	1257.75
479.446	1309.75
479.903	1262.75
480.36	1309.75
480.817	1299.75
481.274	1294.75
481.731	1378.75
482.188	1341.75
482.645	1365.75
483.102	1369.75
483.558	1469.75
484.015	1473.75
484.472	1474.75
484.929	1455.75
485.385	1438.75
485.842	1496.75
486.299	1488.75
486.755	1471.75
487.212	1473.75
487.668	1424.75
488.125	1431.75
488.582	1431.75
489.038	1416.75
489.494	1428.75
489.951	1431.75
490.407	1467.75
490.864	1420.75
491.32	1460.75
491.776	1446.75
492.233	1461.75
492.689	1488.75
493.145	1466.75
493.602	1437.75
494.058	1515.75
494.514	1507.75
494.97	1471.75
495.426	1499.75
495.882	1519.75
496.338	1497.75
496.794	1569.75
497.251	1562.75
497.707	1599.75
498.163	1581.75
498.618	1571.75
499.074	1571.75
499.53	1596.75
499.986	1577.75
500.442	1575.75
500.898	1580.75
501.354	1627.75
501.809	1608.75
502.265	1584.75
502.721	1565.75
503.177	1625.75
503.632	1606.75
504.088	1601.75
504.543	1672.75
504.999	1711.75
505.455	1665.75
505.91	1665.75
506.366	1672.75
506.821	1663.75
507.277	1625.75
507.732	1675.75
508.187	1658.75
508.643	1667.75
509.098	1627.75
509.553	1671.75
510.009	1718.75
510.464	1737.75
510.919	1741.75
511.375	1836.75
511.83	1802.75
512.285	1797.75
512.74	1855.75
513.195	1925.75
513.65	1916.75
514.105	1945.75
514.56	1940.75
515.015	1993.75
515.47	1961.75
515.925	1973.75
516.38	1982.75
516.835	2023.75
517.29	2029.75
517.745	1981.75
518.2	1930.75
518.655	1908.75
519.109	1868.75
519.564	1877.75
520.019	1807.75
520.474	1834.75
520.928	1858.75
521.383	1829.75
521.838	1820.75
522.292	1793.75
522.747	1777.75
523.201	1809.75
523.656	1714.75
524.11	1767.75
524.565	1724.75
525.019	1738.75
525.474	1764.75
525.928	1741.75
526.382	1743.75
526.837	1737.75
527.291	1736.75
527.745	1707.75
528.2	1749.75
528.654	1728.75
529.108	1733.75
529.562	1698.75
530.016	1733.75
530.47	1725.75
530.925	1719.75
531.379	1712.75
531.833	1715.75
532.287	1687.75
532.741	1715.75
533.195	1731.75
533.649	1744.75
534.103	1726.75
534.556	1725.75
535.01	1761.75
535.464	1731.75
535.918	1729.75
536.372	1740.75
536.826	1731.75
537.279	1696.75
537.733	1706.75
538.187	1731.75
538.64	1725.75
539.094	1785.75
539.548	1815.75
540.001	1771.75
540.455	1737.75
540.908	1761.75
541.362	1804.75
541.815	1767.75
542.269	1866.75
542.722	1841.75
543.175	1852.75
543.629	1865.75
544.082	1853.75
544.536	1908.75
544.989	1949.75
545.442	1933.75
545.895	1964.75
546.349	1909.75
546.802	1905.75
547.255	1928.75
547.708	1989.75
548.161	1985.75
548.614	2021.75
549.067	2009.75
549.52	1978.75
549.973	1964.75
550.426	1928.75
550.879	1957.75
551.332	1963.75
551.785	1939.75
552.238	1952.75
552.691	2011.75
553.144	2012.75
553.596	2003.75
554.049	2060.75
554.502	2109.75
554.955	2097.75
555.407	2166.75
555.86	2163.75
556.313	2144.75
556.765	2112.75
557.218	2079.75
557.67	2079.75
558.123	2042.75
558.576	2043.75
559.028	2062.75
559.48	2085.75
559.933	2045.75
560.385	2025.75
560.838	1949.75
561.29	1885.75
561.742	1794.75
562.195	1856.75
562.647	1799.75
563.099	1784.75
563.551	1769.75
564.004	1801.75
564.456	1781.75
564.908	1786.75
565.36	1733.75
565.812	1659.75
566.264	1669.75
566.716	1637.75
567.168	1642.75
567.62	1598.75
568.072	1631.75
568.524	1619.75
568.976	1588.75
569.428	1610.75
569.88	1541.75
570.332	1609.75
570.784	1586.75
571.235	1590.75
571.687	1653.75
572.139	1627.75
572.59	1635.75
573.042	1630.75
573.494	1626.75
573.945	1630.75
574.397	1576.75
574.849	1601.75
575.3	1541.75
575.752	1567.75
576.203	1548.75
576.655	1537.75
577.106	1504.75
577.557	1492.75
578.009	1487.75
578.46	1493.75
578.912	1498.75
579.363	1506.75
579.814	1496.75
580.265	1528.75
580.717	1500.75
581.168	1532.75
581.619	1523.75
582.07	1516.75
582.521	1543.75
582.972	1539.75
583.423	1506.75
583.875	1501.75
584.326	1481.75
584.777	1558.75
585.227	1571.75
585.678	1611.75
586.129	1626.75
586.58	1641.75
587.031	1627.75
587.482	1699.75
587.933	1717.75
588.384	1719.75
588.834	1713.75
589.285	1721.75
589.736	1737.75
590.186	1715.75
590.637	1698.75
591.088	1681.75
591.538	1681.75
591.989	1620.75
592.439	1630.75
592.89	1556.75
593.34	1597.75
593.791	1556.75
594.241	1509.75
594.692	1543.75
595.142	1556.75
595.593	1554.75
596.043	1563.75
596.493	1593.75
596.943	1578.75
597.394	1573.75
597.844	1599.75
598.294	1632.75
598.744	1661.75
599.195	1773.75
599.645	1872.75
600.095	1969.75
600.545	2077.75
600.995	2192.75
601.445	2267.75
601.895	2388.75
602.345	2537.75
602.795	2456.75
603.245	2365.75
603.695	2221.75
604.145	2100.75
604.594	1962.75
605.044	1848.75
605.494	1735.75
605.944	1661.75
606.393	1627.75
606.843	1574.75
607.293	1561.75
607.743	1593.75
608.192	1582.75
608.642	1570.75
609.091	1590.75
609.541	1636.75
609.99	1590.75
610.44	1570.75
610.889	1559.75
611.339	1523.75
611.788	1495.75
612.238	1509.75
612.687	1516.75
613.136	1497.75
613.586	1530.75
614.035	1536.75
614.484	1549.75
614.933	1519.75
615.383	1482.75
615.832	1478.75
616.281	1448.75
616.73	1444.75
617.179	1381.75
617.628	1354.75
618.077	1339.75
618.526	1322.75
618.975	1295.75
619.424	1273.75
619.873	1291.75
620.322	1283.75
620.771	1321.75
621.22	1294.75
621.669	1212.75
622.118	1223.75
622.567	1205.75
623.015	1169.75
623.464	1195.75
623.913	1151.75
624.361	1183.75
624.81	1195.75
625.259	1190.75
625.707	1149.75
626.156	1179.75
626.604	1193.75
627.053	1200.75
627.501	1215.75
627.95	1219.75
628.398	1242.75
628.847	1222.75
629.295	1202.75
629.744	1188.75
630.192	1156.75
630.64	1184.75
631.089	1115.75
631.537	1096.75
631.985	1041.75
632.433	1065.75
632.881	1065.75
633.33	1086.75
633.778	1090.75
634.226	1071.75
634.674	1125.75
635.122	1111.75
635.57	1084.75
636.018	1131.75
636.466	1133.75
636.914	1125.75
637.362	1135.75
637.81	1150.75
638.258	1183.75
638.705	1215.75
639.153	1237.75
639.601	1258.75
640.049	1280.75
640.497	1309.75
640.944	1319.75
641.392	1311.75
641.84	1211.75
642.287	1125.75
642.735	1058.75
643.182	1051.75
643.63	1061.75
644.078	1077.75
644.525	1035.75
644.973	1065.75
645.42	1079.75
645.867	1071.75
646.315	1040.75
646.762	1038.75
647.21	1038.75
647.657	1080.75
648.104	1084.75
648.551	996.75
648.999	997.75
649.446	963.75
649.893	1020.75
650.34	1002.75
650.787	1017.75
651.234	1065.75
651.682	1147.75
652.129	1182.75
652.576	1361.75
653.023	1597.75
653.47	1765.75
653.917	1823.75
654.363	1848.75
654.81	1923.75
655.257	2051.75
655.704	1732.75
656.151	1315.75
656.598	1117.75
657.044	1054.75
657.491	1031.75
657.938	1029.75
658.385	973.75
658.831	1003.75
659.278	974.75
659.724	958.75
660.171	974.75
660.618	942.75
661.064	937.75
661.511	927.75
661.957	943.75
662.404	922.75
662.85	967.75
663.296	955.75
663.743	946.75
664.189	937.75
664.635	949.75
665.082	953.75
665.528	925.75
665.974	934.75
666.42	891.75
666.867	907.75
667.313	867.75
667.759	845.75
668.205	867.75
668.651	890.75
669.097	873.75
669.543	862.75
669.989	867.75
670.435	879.75
670.881	881.75
671.327	898.75
671.773	953.75
672.219	1053.75
672.665	1127.75
673.11	1177.75
673.556	1207.75
674.002	1245.75
674.448	1313.75
674.893	1178.75
675.339	976.75
675.785	890.75
676.23	857.75
676.676	830.75
677.122	791.75
677.567	784.75
678.013	763.75
678.458	746.75
678.904	734.75
679.349	762.75
679.794	743.75
680.24	746.75
680.685	745.75
681.131	723.75
681.576	753.75
682.021	749.75
682.466	764.75
682.912	736.75
683.357	783.75
683.802	860.75
684.247	901.75
684.692	979.75
685.137	1029.75
685.583	1058.75
686.028	1106.75
686.473	1073.75
686.918	969.75
687.363	840.75
687.807	816.75
688.252	801.75
688.697	734.75
689.142	755.75
689.587	730.75
690.032	731.75
690.477	735.75
690.921	807.75
691.366	829.75
691.811	868.75
692.255	921.75
692.7	1082.75
693.145	1358.75
693.589	2107.75
694.034	2793.75
694.478	3191.75
694.923	2940.75
695.367	3657.75
695.812	3259.75
696.256	1293.75
696.701	853.75
697.145	734.75
697.59	743.75
698.034	705.75
698.478	713.75
698.922	731.75
699.367	690.75
699.811	753.75
700.255	781.75
700.699	871.75
701.143	959.75
701.588	1026.75
702.032	1060.75
702.476	1099.75
702.92	1133.75
703.364	1264.75
703.808	1916.75
704.252	2675.75
704.696	3020.75
705.14	2831.75
705.584	3527.75
706.027	2833.75
706.471	1279.75
706.915	885.75
707.359	774.75
707.803	699.75
708.246	685.75
708.69	677.75
709.134	688.75
709.577	680.75
710.021	669.75
710.465	668.75
710.908	665.75
711.352	669.75
711.795	706.75
712.239	794.75
712.682	850.75
713.126	861.75
713.569	891.75
714.012	829.75
714.456	645.75
714.899	637.75
715.342	605.75
715.786	595.75
716.229	562.75
716.672	565.75
717.115	556.75
717.558	553.75
718.002	586.75
718.445	592.75
718.888	653.75
719.331	663.75
719.774	634.75
720.217	649.75
720.66	631.75
721.103	594.75
721.546	589.75
721.989	538.75
722.432	545.75
722.874	534.75
723.317	501.75
723.76	567.75
724.203	631.75
724.645	855.75
725.088	1051.75
725.531	1118.75
725.974	1098.75
726.416	1178.75
726.859	750.75
727.301	576.75
727.744	541.75
728.187	529.75
728.629	537.75
729.071	582.75
729.514	581.75
729.956	606.75
730.399	646.75
730.841	645.75
731.283	615.75
731.726	619.75
732.168	554.75
732.61	602.75
733.053	658.75
733.495	736.75
733.937	825.75
734.379	919.75
734.821	1081.75
735.263	1535.75
735.705	2682.75
736.148	4413.75
736.59	5081.75
737.032	4803.75
737.474	5145.75
737.916	2397.75
738.357	1129.75
738.799	778.75
739.241	689.75
739.683	693.75
740.125	671.75
740.567	682.75
741.008	692.75
741.45	761.75
741.892	783.75
742.334	823.75
742.775	775.75
743.217	765.75
