Data from 20170802-ORNL-NYSim-Air_HRD10391_10-36-02-564.txt Node
Date: Wed Aug 02 10:36:02 EDT 2017
User: Ender
Spectrometer: HR+D1039
Trigger mode: 0
Integration Time (sec): 3.750000E-3
Scans to average: 1
Electric dark correction enabled: true
Nonlinearity correction enabled: false
Boxcar width: 0
XAxis mode: Wavelengths
Number of Pixels in Spectrum: 2048
>>>>>Begin Spectral Data<<<<<
187.836	3.75
188.309	3.75
188.782	3.75
189.255	-16.25
189.728	-11.25
190.201	0.75
190.674	-4.25
191.147	-6.25
191.619	-12.25
192.092	-11.25
192.565	4.75
193.038	9.75
193.511	-3.25
193.984	3.75
194.456	11.75
194.929	6.75
195.402	7.75
195.874	15.75
196.347	13.75
196.82	36.75
197.292	45.75
197.765	23.75
198.237	38.75
198.71	31.75
199.182	42.75
199.655	58.75
200.127	42.75
200.6	52.75
201.072	53.75
201.544	50.75
202.017	67.75
202.489	70.75
202.961	68.75
203.433	86.75
203.906	82.75
204.378	72.75
204.85	82.75
205.322	80.75
205.794	70.75
206.266	83.75
206.739	76.75
207.211	80.75
207.683	75.75
208.155	92.75
208.627	91.75
209.099	74.75
209.57	100.75
210.042	85.75
210.514	92.75
210.986	86.75
211.458	99.75
211.93	72.75
212.402	94.75
212.873	81.75
213.345	99.75
213.817	69.75
214.288	91.75
214.76	84.75
215.232	74.75
215.703	92.75
216.175	63.75
216.646	67.75
217.118	83.75
217.589	80.75
218.061	81.75
218.532	81.75
219.004	74.75
219.475	84.75
219.946	83.75
220.418	77.75
220.889	75.75
221.36	78.75
221.832	86.75
222.303	79.75
222.774	74.75
223.245	79.75
223.717	79.75
224.188	68.75
224.659	84.75
225.13	70.75
225.601	58.75
226.072	88.75
226.543	96.75
227.014	71.75
227.485	74.75
227.956	95.75
228.427	88.75
228.898	79.75
229.369	72.75
229.839	82.75
230.31	69.75
230.781	82.75
231.252	92.75
231.722	85.75
232.193	89.75
232.664	85.75
233.135	82.75
233.605	84.75
234.076	64.75
234.546	95.75
235.017	70.75
235.487	76.75
235.958	88.75
236.428	89.75
236.899	73.75
237.369	82.75
237.84	75.75
238.31	71.75
238.78	87.75
239.251	104.75
239.721	89.75
240.191	85.75
240.662	99.75
241.132	77.75
241.602	101.75
242.072	86.75
242.542	74.75
243.013	101.75
243.483	104.75
243.953	95.75
244.423	87.75
244.893	88.75
245.363	105.75
245.833	80.75
246.303	80.75
246.773	77.75
247.243	90.75
247.712	102.75
248.182	92.75
248.652	89.75
249.122	98.75
249.592	94.75
250.061	82.75
250.531	102.75
251.001	98.75
251.471	90.75
251.94	96.75
252.41	90.75
252.879	86.75
253.349	92.75
253.818	104.75
254.288	108.75
254.757	100.75
255.227	103.75
255.696	100.75
256.166	82.75
256.635	96.75
257.105	94.75
257.574	92.75
258.043	103.75
258.513	100.75
258.982	102.75
259.451	91.75
259.92	99.75
260.389	110.75
260.859	100.75
261.328	85.75
261.797	98.75
262.266	104.75
262.735	100.75
263.204	91.75
263.673	111.75
264.142	99.75
264.611	115.75
265.08	87.75
265.549	104.75
266.018	101.75
266.487	93.75
266.955	98.75
267.424	94.75
267.893	82.75
268.362	101.75
268.83	110.75
269.299	103.75
269.768	114.75
270.236	117.75
270.705	106.75
271.174	102.75
271.642	111.75
272.111	101.75
272.579	116.75
273.048	96.75
273.516	102.75
273.985	109.75
274.453	93.75
274.922	113.75
275.39	99.75
275.858	99.75
276.327	111.75
276.795	121.75
277.263	116.75
277.731	125.75
278.2	110.75
278.668	117.75
279.136	122.75
279.604	109.75
280.072	114.75
280.54	112.75
281.008	122.75
281.477	100.75
281.945	119.75
282.413	126.75
282.881	131.75
283.348	104.75
283.816	128.75
284.284	132.75
284.752	121.75
285.22	106.75
285.688	142.75
286.156	113.75
286.623	129.75
287.091	132.75
287.559	126.75
288.026	125.75
288.494	128.75
288.962	126.75
289.429	131.75
289.897	121.75
290.364	130.75
290.832	126.75
291.3	141.75
291.767	114.75
292.234	126.75
292.702	126.75
293.169	110.75
293.637	138.75
294.104	128.75
294.571	150.75
295.039	118.75
295.506	127.75
295.973	131.75
296.44	142.75
296.908	139.75
297.375	122.75
297.842	123.75
298.309	135.75
298.776	125.75
299.243	145.75
299.71	154.75
300.177	135.75
300.644	127.75
301.111	152.75
301.578	122.75
302.045	131.75
302.512	148.75
302.979	150.75
303.446	144.75
303.913	156.75
304.379	150.75
304.846	148.75
305.313	152.75
305.78	150.75
306.246	140.75
306.713	142.75
307.18	150.75
307.646	153.75
308.113	161.75
308.579	157.75
309.046	165.75
309.512	159.75
309.979	167.75
310.445	148.75
310.912	177.75
311.378	180.75
311.845	168.75
312.311	142.75
312.777	150.75
313.244	156.75
313.71	158.75
314.176	168.75
314.642	171.75
315.109	182.75
315.575	165.75
316.041	173.75
316.507	175.75
316.973	171.75
317.439	171.75
317.905	157.75
318.371	192.75
318.837	170.75
319.303	173.75
319.769	154.75
320.235	180.75
320.701	167.75
321.167	173.75
321.633	185.75
322.099	186.75
322.564	176.75
323.03	166.75
323.496	188.75
323.962	190.75
324.427	170.75
324.893	205.75
325.359	184.75
325.824	163.75
326.29	188.75
326.755	202.75
327.221	182.75
327.686	183.75
328.152	201.75
328.617	200.75
329.083	207.75
329.548	190.75
330.014	204.75
330.479	197.75
330.944	192.75
331.41	188.75
331.875	186.75
332.34	211.75
332.805	208.75
333.271	201.75
333.736	210.75
334.201	208.75
334.666	199.75
335.131	198.75
335.596	190.75
336.061	198.75
336.526	220.75
336.991	210.75
337.456	200.75
337.921	206.75
338.386	182.75
338.851	207.75
339.316	206.75
339.781	209.75
340.246	205.75
340.711	233.75
341.175	220.75
341.64	224.75
342.105	220.75
342.569	233.75
343.034	226.75
343.499	222.75
343.963	223.75
344.428	231.75
344.893	231.75
345.357	223.75
345.822	234.75
346.286	249.75
346.751	230.75
347.215	232.75
347.679	251.75
348.144	263.75
348.608	241.75
349.073	247.75
349.537	270.75
350.001	268.75
350.465	251.75
350.93	260.75
351.394	266.75
351.858	246.75
352.322	250.75
352.786	255.75
353.25	273.75
353.715	282.75
354.179	274.75
354.643	298.75
355.107	296.75
355.571	283.75
356.035	266.75
356.498	296.75
356.962	274.75
357.426	276.75
357.89	285.75
358.354	274.75
358.818	280.75
359.281	290.75
359.745	288.75
360.209	295.75
360.673	304.75
361.136	289.75
361.6	264.75
362.064	292.75
362.527	285.75
362.991	289.75
363.454	302.75
363.918	279.75
364.381	301.75
364.845	280.75
365.308	295.75
365.772	288.75
366.235	290.75
366.698	270.75
367.162	301.75
367.625	316.75
368.088	295.75
368.552	299.75
369.015	281.75
369.478	295.75
369.941	305.75
370.404	324.75
370.867	308.75
371.331	307.75
371.794	319.75
372.257	334.75
372.72	319.75
373.183	323.75
373.646	338.75
374.109	313.75
374.572	298.75
375.035	320.75
375.497	340.75
375.96	325.75
376.423	346.75
376.886	323.75
377.349	328.75
377.811	328.75
378.274	342.75
378.737	334.75
379.199	370.75
379.662	343.75
380.125	367.75
380.587	351.75
381.05	370.75
381.512	360.75
381.975	361.75
382.437	374.75
382.9	394.75
383.362	378.75
383.825	403.75
384.287	354.75
384.75	369.75
385.212	376.75
385.674	393.75
386.136	375.75
386.599	376.75
387.061	388.75
387.523	392.75
387.985	371.75
388.447	378.75
388.91	380.75
389.372	412.75
389.834	382.75
390.296	398.75
390.758	405.75
391.22	404.75
391.682	399.75
392.144	389.75
392.606	403.75
393.068	404.75
393.529	444.75
393.991	446.75
394.453	424.75
394.915	416.75
395.377	426.75
395.838	399.75
396.3	417.75
396.762	420.75
397.224	402.75
397.685	402.75
398.147	420.75
398.608	429.75
399.07	448.75
399.531	431.75
399.993	410.75
400.454	442.75
400.916	451.75
401.377	461.75
401.839	435.75
402.3	456.75
402.762	486.75
403.223	521.75
403.684	477.75
404.145	473.75
404.607	469.75
405.068	473.75
405.529	482.75
405.99	463.75
406.451	482.75
406.913	464.75
407.374	484.75
407.835	472.75
408.296	491.75
408.757	485.75
409.218	509.75
409.679	486.75
410.14	514.75
410.601	525.75
411.062	494.75
411.522	526.75
411.983	555.75
412.444	532.75
412.905	546.75
413.366	583.75
413.826	602.75
414.287	680.75
414.748	831.75
415.208	828.75
415.669	707.75
416.13	658.75
416.59	622.75
417.051	631.75
417.511	674.75
417.972	722.75
418.432	758.75
418.893	865.75
419.353	842.75
419.814	642.75
420.274	562.75
420.734	549.75
421.195	583.75
421.655	563.75
422.115	598.75
422.576	582.75
423.036	629.75
423.496	614.75
423.956	644.75
424.416	663.75
424.876	787.75
425.336	741.75
425.797	717.75
426.257	716.75
426.717	649.75
427.177	611.75
427.637	613.75
428.097	599.75
428.556	652.75
429.016	662.75
429.476	639.75
429.936	626.75
430.396	600.75
430.856	640.75
431.315	614.75
431.775	674.75
432.235	734.75
432.694	728.75
433.154	671.75
433.614	701.75
434.073	654.75
434.533	629.75
434.993	601.75
435.452	593.75
435.912	610.75
436.371	616.75
436.83	632.75
437.29	620.75
437.749	606.75
438.209	631.75
438.668	633.75
439.127	642.75
439.587	625.75
440.046	631.75
440.505	650.75
440.964	650.75
441.424	660.75
441.883	721.75
442.342	674.75
442.801	652.75
443.26	644.75
443.719	634.75
444.178	675.75
444.637	642.75
445.096	699.75
445.555	673.75
446.014	655.75
446.473	666.75
446.932	658.75
447.391	693.75
447.849	691.75
448.308	694.75
448.767	679.75
449.226	692.75
449.685	702.75
450.143	729.75
450.602	718.75
451.061	657.75
451.519	684.75
451.978	683.75
452.436	695.75
452.895	679.75
453.353	683.75
453.812	701.75
454.27	697.75
454.729	688.75
455.187	696.75
455.646	668.75
456.104	691.75
456.562	702.75
457.021	680.75
457.479	668.75
457.937	690.75
458.395	742.75
458.854	763.75
459.312	729.75
459.77	702.75
460.228	728.75
460.686	748.75
461.144	737.75
461.602	720.75
462.06	760.75
462.518	758.75
462.976	742.75
463.434	748.75
463.892	760.75
464.35	795.75
464.808	776.75
465.266	791.75
465.724	779.75
466.181	804.75
466.639	787.75
467.097	810.75
467.555	851.75
468.012	860.75
468.47	843.75
468.928	861.75
469.385	890.75
469.843	902.75
470.3	887.75
470.758	914.75
471.215	954.75
471.673	938.75
472.13	945.75
472.588	963.75
473.045	948.75
473.503	978.75
473.96	1016.75
474.417	1058.75
474.875	1042.75
475.332	1054.75
475.789	1074.75
476.246	1107.75
476.704	1104.75
477.161	1097.75
477.618	1140.75
478.075	1136.75
478.532	1190.75
478.989	1208.75
479.446	1269.75
479.903	1262.75
480.36	1252.75
480.817	1256.75
481.274	1288.75
481.731	1303.75
482.188	1333.75
482.645	1370.75
483.102	1392.75
483.558	1468.75
484.015	1440.75
484.472	1430.75
484.929	1483.75
485.385	1512.75
485.842	1458.75
486.299	1517.75
486.755	1480.75
487.212	1430.75
487.668	1404.75
488.125	1418.75
488.582	1421.75
489.038	1399.75
489.494	1425.75
489.951	1426.75
490.407	1445.75
490.864	1452.75
491.32	1430.75
491.776	1437.75
492.233	1472.75
492.689	1468.75
493.145	1464.75
493.602	1488.75
494.058	1466.75
494.514	1468.75
494.97	1493.75
495.426	1527.75
495.882	1503.75
496.338	1528.75
496.794	1532.75
497.251	1490.75
497.707	1516.75
498.163	1590.75
498.618	1572.75
499.074	1524.75
499.53	1585.75
499.986	1571.75
500.442	1578.75
500.898	1519.75
501.354	1570.75
501.809	1624.75
502.265	1582.75
502.721	1596.75
503.177	1630.75
503.632	1645.75
504.088	1610.75
504.543	1643.75
504.999	1659.75
505.455	1656.75
505.91	1618.75
506.366	1645.75
506.821	1639.75
507.277	1665.75
507.732	1677.75
508.187	1662.75
508.643	1665.75
509.098	1690.75
509.553	1684.75
510.009	1672.75
510.464	1742.75
510.919	1729.75
511.375	1787.75
511.83	1811.75
512.285	1856.75
512.74	1860.75
513.195	1836.75
513.65	1903.75
514.105	1960.75
514.56	1937.75
515.015	1986.75
515.47	2052.75
515.925	1954.75
516.38	1976.75
516.835	1971.75
517.29	1967.75
517.745	1988.75
518.2	1950.75
518.655	1918.75
519.109	1905.75
519.564	1841.75
520.019	1847.75
520.474	1834.75
520.928	1847.75
521.383	1818.75
521.838	1812.75
522.292	1804.75
522.747	1774.75
523.201	1768.75
523.656	1778.75
524.11	1786.75
524.565	1770.75
525.019	1726.75
525.474	1724.75
525.928	1717.75
526.382	1743.75
526.837	1722.75
527.291	1707.75
527.745	1740.75
528.2	1727.75
528.654	1700.75
529.108	1750.75
529.562	1712.75
530.016	1683.75
530.47	1715.75
530.925	1676.75
531.379	1713.75
531.833	1775.75
532.287	1722.75
532.741	1748.75
533.195	1762.75
533.649	1713.75
534.103	1715.75
534.556	1723.75
535.01	1718.75
535.464	1712.75
535.918	1687.75
536.372	1764.75
536.826	1719.75
537.279	1684.75
537.733	1729.75
538.187	1682.75
538.64	1734.75
539.094	1772.75
539.548	1792.75
540.001	1782.75
540.455	1785.75
540.908	1814.75
541.362	1837.75
541.815	1819.75
542.269	1872.75
542.722	1826.75
543.175	1864.75
543.629	1895.75
544.082	1839.75
544.536	1901.75
544.989	1911.75
545.442	1962.75
545.895	1968.75
546.349	1934.75
546.802	1966.75
547.255	1934.75
547.708	1934.75
548.161	1983.75
548.614	1966.75
549.067	2038.75
549.52	1998.75
549.973	1928.75
550.426	1941.75
550.879	1942.75
551.332	1930.75
551.785	1926.75
552.238	1950.75
552.691	1941.75
553.144	2014.75
553.596	2001.75
554.049	2017.75
554.502	2106.75
554.955	2121.75
555.407	2146.75
555.86	2175.75
556.313	2128.75
556.765	2094.75
557.218	2056.75
557.67	2054.75
558.123	2058.75
558.576	2024.75
559.028	2046.75
559.48	2070.75
559.933	2059.75
560.385	1992.75
560.838	1901.75
561.29	1876.75
561.742	1861.75
562.195	1854.75
562.647	1791.75
563.099	1804.75
563.551	1771.75
564.004	1774.75
564.456	1778.75
564.908	1740.75
565.36	1707.75
565.812	1689.75
566.264	1678.75
566.716	1630.75
567.168	1595.75
567.62	1662.75
568.072	1598.75
568.524	1575.75
568.976	1594.75
569.428	1566.75
569.88	1583.75
570.332	1575.75
570.784	1584.75
571.235	1582.75
571.687	1597.75
572.139	1629.75
572.59	1603.75
573.042	1620.75
573.494	1666.75
573.945	1617.75
574.397	1546.75
574.849	1569.75
575.3	1596.75
575.752	1551.75
576.203	1560.75
576.655	1538.75
577.106	1527.75
577.557	1527.75
578.009	1523.75
578.46	1490.75
578.912	1508.75
579.363	1527.75
579.814	1494.75
580.265	1517.75
580.717	1492.75
581.168	1504.75
581.619	1507.75
582.07	1541.75
582.521	1535.75
582.972	1497.75
583.423	1491.75
583.875	1526.75
584.326	1530.75
584.777	1509.75
585.227	1568.75
585.678	1625.75
586.129	1651.75
586.58	1648.75
587.031	1686.75
587.482	1713.75
587.933	1688.75
588.384	1714.75
588.834	1719.75
589.285	1697.75
589.736	1735.75
590.186	1736.75
590.637	1700.75
591.088	1648.75
591.538	1629.75
591.989	1648.75
592.439	1583.75
592.89	1584.75
593.34	1545.75
593.791	1550.75
594.241	1498.75
594.692	1538.75
595.142	1536.75
595.593	1542.75
596.043	1570.75
596.493	1585.75
596.943	1571.75
597.394	1608.75
597.844	1575.75
598.294	1668.75
598.744	1676.75
599.195	1782.75
599.645	1853.75
600.095	1955.75
600.545	2068.75
600.995	2172.75
601.445	2281.75
601.895	2421.75
602.345	2490.75
602.795	2442.75
603.245	2363.75
603.695	2255.75
604.145	2101.75
604.594	2015.75
605.044	1898.75
605.494	1767.75
605.944	1650.75
606.393	1575.75
606.843	1563.75
607.293	1554.75
607.743	1558.75
608.192	1630.75
608.642	1550.75
609.091	1554.75
609.541	1545.75
609.99	1552.75
610.44	1539.75
610.889	1529.75
611.339	1453.75
611.788	1491.75
612.238	1487.75
612.687	1508.75
613.136	1540.75
613.586	1537.75
614.035	1556.75
614.484	1519.75
614.933	1575.75
615.383	1477.75
615.832	1496.75
616.281	1438.75
616.73	1403.75
617.179	1400.75
617.628	1364.75
618.077	1364.75
618.526	1354.75
618.975	1314.75
619.424	1293.75
619.873	1329.75
620.322	1276.75
620.771	1280.75
621.22	1280.75
621.669	1266.75
622.118	1242.75
622.567	1195.75
623.015	1205.75
623.464	1155.75
623.913	1149.75
624.361	1164.75
624.81	1170.75
625.259	1176.75
625.707	1171.75
626.156	1175.75
626.604	1192.75
627.053	1210.75
627.501	1200.75
627.95	1217.75
628.398	1225.75
628.847	1181.75
629.295	1169.75
629.744	1209.75
630.192	1160.75
630.64	1163.75
631.089	1124.75
631.537	1102.75
631.985	1132.75
632.433	1071.75
632.881	1078.75
633.33	1087.75
633.778	1098.75
634.226	1079.75
634.674	1102.75
635.122	1083.75
635.57	1124.75
636.018	1134.75
636.466	1131.75
636.914	1090.75
637.362	1149.75
637.81	1162.75
638.258	1165.75
638.705	1207.75
639.153	1266.75
639.601	1276.75
640.049	1255.75
640.497	1282.75
640.944	1349.75
641.392	1294.75
641.84	1187.75
642.287	1136.75
642.735	1096.75
643.182	1057.75
643.63	1043.75
644.078	1041.75
644.525	1021.75
644.973	1066.75
645.42	1055.75
645.867	1049.75
646.315	1056.75
646.762	1055.75
647.21	1067.75
647.657	1073.75
648.104	1098.75
648.551	1011.75
648.999	1000.75
649.446	1012.75
649.893	983.75
650.34	1006.75
650.787	1066.75
651.234	1088.75
651.682	1150.75
652.129	1259.75
652.576	1381.75
653.023	1611.75
653.47	1747.75
653.917	1804.75
654.363	1844.75
654.81	1894.75
655.257	2044.75
655.704	1722.75
656.151	1334.75
656.598	1154.75
657.044	1026.75
657.491	1009.75
657.938	987.75
658.385	940.75
658.831	984.75
659.278	966.75
659.724	960.75
660.171	907.75
660.618	928.75
661.064	912.75
661.511	910.75
661.957	917.75
662.404	910.75
662.85	944.75
663.296	928.75
663.743	955.75
664.189	913.75
664.635	964.75
665.082	937.75
665.528	942.75
665.974	919.75
666.42	870.75
666.867	909.75
667.313	885.75
667.759	843.75
668.205	827.75
668.651	846.75
669.097	890.75
669.543	873.75
669.989	897.75
670.435	857.75
670.881	872.75
671.327	906.75
671.773	993.75
672.219	1080.75
672.665	1146.75
673.11	1189.75
673.556	1237.75
674.002	1244.75
674.448	1319.75
674.893	1167.75
675.339	994.75
675.785	896.75
676.23	856.75
676.676	782.75
677.122	795.75
677.567	806.75
678.013	768.75
678.458	762.75
678.904	726.75
679.349	745.75
679.794	739.75
680.24	702.75
680.685	730.75
681.131	728.75
681.576	760.75
682.021	729.75
682.466	746.75
682.912	764.75
683.357	773.75
683.802	817.75
684.247	899.75
684.692	1010.75
685.137	1046.75
685.583	1060.75
686.028	1122.75
686.473	1114.75
686.918	959.75
687.363	870.75
687.807	813.75
688.252	765.75
688.697	725.75
689.142	740.75
689.587	692.75
690.032	725.75
690.477	771.75
690.921	804.75
691.366	837.75
691.811	898.75
692.255	913.75
692.7	1057.75
693.145	1370.75
693.589	2133.75
694.034	2891.75
694.478	3234.75
694.923	2934.75
695.367	3746.75
695.812	3268.75
696.256	1301.75
696.701	830.75
697.145	718.75
697.59	738.75
698.034	722.75
698.478	685.75
698.922	697.75
699.367	736.75
699.811	728.75
700.255	778.75
700.699	884.75
701.143	948.75
701.588	988.75
702.032	1027.75
702.476	1081.75
702.92	1136.75
703.364	1318.75
703.808	1918.75
704.252	2678.75
704.696	3074.75
705.14	2782.75
705.584	3614.75
706.027	2876.75
706.471	1298.75
706.915	897.75
707.359	750.75
707.803	696.75
708.246	700.75
708.69	675.75
709.134	686.75
709.577	661.75
710.021	662.75
710.465	666.75
710.908	678.75
711.352	644.75
711.795	714.75
712.239	788.75
712.682	806.75
713.126	828.75
713.569	875.75
714.012	804.75
714.456	681.75
714.899	635.75
715.342	587.75
715.786	584.75
716.229	564.75
716.672	537.75
717.115	565.75
717.558	576.75
718.002	559.75
718.445	583.75
718.888	624.75
719.331	622.75
719.774	683.75
720.217	666.75
720.66	628.75
721.103	613.75
721.546	574.75
721.989	544.75
722.432	538.75
722.874	556.75
723.317	522.75
723.76	554.75
724.203	612.75
724.645	872.75
725.088	1058.75
725.531	1100.75
725.974	1112.75
726.416	1175.75
726.859	767.75
727.301	588.75
727.744	555.75
728.187	546.75
728.629	552.75
729.071	588.75
729.514	574.75
729.956	595.75
730.399	622.75
730.841	626.75
731.283	611.75
731.726	584.75
732.168	612.75
732.61	608.75
733.053	632.75
733.495	723.75
733.937	785.75
734.379	908.75
734.821	1106.75
735.263	1510.75
735.705	2666.75
736.148	4393.75
736.59	5035.75
737.032	4790.75
737.474	5163.75
737.916	2380.75
738.357	1130.75
738.799	787.75
739.241	726.75
739.683	687.75
740.125	683.75
740.567	678.75
741.008	713.75
741.45	725.75
741.892	781.75
742.334	832.75
742.775	753.75
743.217	808.75
