Data from 20170802-ORNL-NYSim-Air_HRD10391_10-36-13-577.txt Node
Date: Wed Aug 02 10:36:13 EDT 2017
User: Ender
Spectrometer: HR+D1039
Trigger mode: 0
Integration Time (sec): 3.750000E-3
Scans to average: 1
Electric dark correction enabled: true
Nonlinearity correction enabled: false
Boxcar width: 0
XAxis mode: Wavelengths
Number of Pixels in Spectrum: 2048
>>>>>Begin Spectral Data<<<<<
187.836	-6.75
188.309	-6.75
188.782	-6.75
189.255	0.25
189.728	-6.75
190.201	-1.75
190.674	-5.75
191.147	-15.75
191.619	0.25
192.092	-10.75
192.565	-11.75
193.038	3.25
193.511	0.25
193.984	0.25
194.456	13.25
194.929	17.25
195.402	11.25
195.874	13.25
196.347	19.25
196.82	25.25
197.292	22.25
197.765	49.25
198.237	28.25
198.71	46.25
199.182	46.25
199.655	45.25
200.127	38.25
200.6	59.25
201.072	73.25
201.544	44.25
202.017	71.25
202.489	67.25
202.961	76.25
203.433	59.25
203.906	75.25
204.378	62.25
204.85	69.25
205.322	77.25
205.794	84.25
206.266	73.25
206.739	81.25
207.211	87.25
207.683	83.25
208.155	78.25
208.627	95.25
209.099	80.25
209.57	76.25
210.042	83.25
210.514	93.25
210.986	78.25
211.458	91.25
211.93	81.25
212.402	80.25
212.873	95.25
213.345	86.25
213.817	101.25
214.288	83.25
214.76	75.25
215.232	85.25
215.703	81.25
216.175	89.25
216.646	84.25
217.118	88.25
217.589	84.25
218.061	87.25
218.532	96.25
219.004	72.25
219.475	85.25
219.946	77.25
220.418	91.25
220.889	75.25
221.36	88.25
221.832	81.25
222.303	77.25
222.774	84.25
223.245	78.25
223.717	82.25
224.188	92.25
224.659	80.25
225.13	89.25
225.601	83.25
226.072	74.25
226.543	79.25
227.014	67.25
227.485	67.25
227.956	86.25
228.427	84.25
228.898	80.25
229.369	93.25
229.839	83.25
230.31	78.25
230.781	69.25
231.252	73.25
231.722	83.25
232.193	94.25
232.664	87.25
233.135	93.25
233.605	107.25
234.076	85.25
234.546	90.25
235.017	62.25
235.487	85.25
235.958	75.25
236.428	77.25
236.899	77.25
237.369	85.25
237.84	110.25
238.31	79.25
238.78	89.25
239.251	85.25
239.721	90.25
240.191	99.25
240.662	81.25
241.132	84.25
241.602	100.25
242.072	92.25
242.542	88.25
243.013	94.25
243.483	74.25
243.953	87.25
244.423	83.25
244.893	87.25
245.363	86.25
245.833	72.25
246.303	81.25
246.773	91.25
247.243	95.25
247.712	72.25
248.182	101.25
248.652	103.25
249.122	78.25
249.592	103.25
250.061	89.25
250.531	96.25
251.001	89.25
251.471	99.25
251.94	91.25
252.41	89.25
252.879	96.25
253.349	89.25
253.818	96.25
254.288	77.25
254.757	100.25
255.227	83.25
255.696	104.25
256.166	104.25
256.635	100.25
257.105	94.25
257.574	97.25
258.043	104.25
258.513	97.25
258.982	109.25
259.451	105.25
259.92	99.25
260.389	100.25
260.859	104.25
261.328	102.25
261.797	96.25
262.266	95.25
262.735	111.25
263.204	101.25
263.673	108.25
264.142	112.25
264.611	89.25
265.08	89.25
265.549	100.25
266.018	95.25
266.487	106.25
266.955	92.25
267.424	103.25
267.893	113.25
268.362	101.25
268.83	117.25
269.299	111.25
269.768	104.25
270.236	103.25
270.705	101.25
271.174	113.25
271.642	123.25
272.111	108.25
272.579	123.25
273.048	117.25
273.516	111.25
273.985	101.25
274.453	117.25
274.922	95.25
275.39	133.25
275.858	99.25
276.327	100.25
276.795	123.25
277.263	105.25
277.731	98.25
278.2	125.25
278.668	127.25
279.136	123.25
279.604	120.25
280.072	117.25
280.54	105.25
281.008	131.25
281.477	115.25
281.945	114.25
282.413	106.25
282.881	122.25
283.348	132.25
283.816	124.25
284.284	110.25
284.752	118.25
285.22	119.25
285.688	108.25
286.156	129.25
286.623	124.25
287.091	125.25
287.559	128.25
288.026	121.25
288.494	125.25
288.962	124.25
289.429	128.25
289.897	117.25
290.364	127.25
290.832	126.25
291.3	132.25
291.767	139.25
292.234	130.25
292.702	135.25
293.169	129.25
293.637	123.25
294.104	110.25
294.571	135.25
295.039	146.25
295.506	146.25
295.973	134.25
296.44	132.25
296.908	139.25
297.375	146.25
297.842	145.25
298.309	131.25
298.776	139.25
299.243	126.25
299.71	137.25
300.177	128.25
300.644	137.25
301.111	149.25
301.578	122.25
302.045	147.25
302.512	154.25
302.979	138.25
303.446	163.25
303.913	159.25
304.379	156.25
304.846	142.25
305.313	143.25
305.78	143.25
306.246	152.25
306.713	167.25
307.18	148.25
307.646	160.25
308.113	157.25
308.579	171.25
309.046	177.25
309.512	137.25
309.979	147.25
310.445	161.25
310.912	163.25
311.378	158.25
311.845	166.25
312.311	154.25
312.777	156.25
313.244	151.25
313.71	176.25
314.176	165.25
314.642	166.25
315.109	179.25
315.575	148.25
316.041	153.25
316.507	161.25
316.973	181.25
317.439	162.25
317.905	176.25
318.371	193.25
318.837	163.25
319.303	183.25
319.769	177.25
320.235	184.25
320.701	184.25
321.167	164.25
321.633	179.25
322.099	187.25
322.564	181.25
323.03	191.25
323.496	183.25
323.962	189.25
324.427	205.25
324.893	188.25
325.359	187.25
325.824	185.25
326.29	187.25
326.755	207.25
327.221	198.25
327.686	193.25
328.152	206.25
328.617	197.25
329.083	205.25
329.548	208.25
330.014	191.25
330.479	190.25
330.944	207.25
331.41	202.25
331.875	200.25
332.34	204.25
332.805	197.25
333.271	201.25
333.736	190.25
334.201	212.25
334.666	202.25
335.131	203.25
335.596	214.25
336.061	206.25
336.526	220.25
336.991	217.25
337.456	205.25
337.921	209.25
338.386	230.25
338.851	221.25
339.316	203.25
339.781	213.25
340.246	215.25
340.711	213.25
341.175	210.25
341.64	226.25
342.105	217.25
342.569	232.25
343.034	213.25
343.499	240.25
343.963	222.25
344.428	219.25
344.893	244.25
345.357	237.25
345.822	234.25
346.286	233.25
346.751	239.25
347.215	277.25
347.679	247.25
348.144	255.25
348.608	262.25
349.073	266.25
349.537	281.25
350.001	288.25
350.465	263.25
350.93	279.25
351.394	264.25
351.858	285.25
352.322	289.25
352.786	277.25
353.25	271.25
353.715	260.25
354.179	286.25
354.643	295.25
355.107	295.25
355.571	305.25
356.035	292.25
356.498	283.25
356.962	284.25
357.426	295.25
357.89	279.25
358.354	270.25
358.818	293.25
359.281	297.25
359.745	289.25
360.209	303.25
360.673	280.25
361.136	302.25
361.6	306.25
362.064	307.25
362.527	308.25
362.991	291.25
363.454	291.25
363.918	319.25
364.381	297.25
364.845	302.25
365.308	317.25
365.772	307.25
366.235	304.25
366.698	293.25
367.162	325.25
367.625	302.25
368.088	312.25
368.552	312.25
369.015	329.25
369.478	329.25
369.941	317.25
370.404	330.25
370.867	329.25
371.331	325.25
371.794	338.25
372.257	327.25
372.72	346.25
373.183	349.25
373.646	316.25
374.109	345.25
374.572	315.25
375.035	333.25
375.497	372.25
375.96	353.25
376.423	344.25
376.886	367.25
377.349	347.25
377.811	351.25
378.274	373.25
378.737	346.25
379.199	371.25
379.662	372.25
380.125	347.25
380.587	378.25
381.05	375.25
381.512	384.25
381.975	393.25
382.437	402.25
382.9	380.25
383.362	371.25
383.825	407.25
384.287	377.25
384.75	384.25
385.212	416.25
385.674	412.25
386.136	394.25
386.599	415.25
387.061	399.25
387.523	393.25
387.985	411.25
388.447	404.25
388.91	382.25
389.372	417.25
389.834	423.25
390.296	407.25
390.758	390.25
391.22	417.25
391.682	414.25
392.144	408.25
392.606	423.25
393.068	430.25
393.529	460.25
393.991	466.25
394.453	431.25
394.915	447.25
395.377	408.25
395.838	433.25
396.3	405.25
396.762	437.25
397.224	427.25
397.685	425.25
398.147	432.25
398.608	436.25
399.07	432.25
399.531	454.25
399.993	451.25
400.454	461.25
400.916	471.25
401.377	474.25
401.839	480.25
402.3	486.25
402.762	507.25
403.223	547.25
403.684	543.25
404.145	506.25
404.607	474.25
405.068	476.25
405.529	467.25
405.99	519.25
406.451	497.25
406.913	484.25
407.374	498.25
407.835	489.25
408.296	484.25
408.757	493.25
409.218	507.25
409.679	507.25
410.14	528.25
410.601	531.25
411.062	533.25
411.522	545.25
411.983	571.25
412.444	553.25
412.905	580.25
413.366	598.25
413.826	629.25
414.287	710.25
414.748	873.25
415.208	821.25
415.669	727.25
416.13	677.25
416.59	664.25
417.051	665.25
417.511	709.25
417.972	727.25
418.432	801.25
418.893	896.25
419.353	851.25
419.814	645.25
420.274	588.25
420.734	598.25
421.195	592.25
421.655	579.25
422.115	645.25
422.576	615.25
423.036	641.25
423.496	647.25
423.956	655.25
424.416	698.25
424.876	777.25
425.336	767.25
425.797	733.25
426.257	732.25
426.717	701.25
427.177	613.25
427.637	618.25
428.097	650.25
428.556	628.25
429.016	687.25
429.476	697.25
429.936	652.25
430.396	628.25
430.856	653.25
431.315	647.25
431.775	685.25
432.235	749.25
432.694	801.25
433.154	694.25
433.614	737.25
434.073	684.25
434.533	621.25
434.993	638.25
435.452	634.25
435.912	633.25
436.371	629.25
436.83	657.25
437.29	660.25
437.749	646.25
438.209	637.25
438.668	666.25
439.127	659.25
439.587	663.25
440.046	664.25
440.505	686.25
440.964	675.25
441.424	718.25
441.883	711.25
442.342	708.25
442.801	695.25
443.26	686.25
443.719	668.25
444.178	660.25
444.637	682.25
445.096	697.25
445.555	704.25
446.014	703.25
446.473	686.25
446.932	683.25
447.391	697.25
447.849	710.25
448.308	692.25
448.767	723.25
449.226	741.25
449.685	752.25
450.143	770.25
450.602	777.25
451.061	723.25
451.519	735.25
451.978	728.25
452.436	745.25
452.895	691.25
453.353	698.25
453.812	713.25
454.27	718.25
454.729	727.25
455.187	711.25
455.646	717.25
456.104	720.25
456.562	724.25
457.021	739.25
457.479	731.25
457.937	745.25
458.395	760.25
458.854	760.25
459.312	719.25
459.77	715.25
460.228	772.25
460.686	755.25
461.144	752.25
461.602	747.25
462.06	771.25
462.518	780.25
462.976	780.25
463.434	767.25
463.892	787.25
464.35	779.25
464.808	804.25
465.266	861.25
465.724	835.25
466.181	854.25
466.639	821.25
467.097	818.25
467.555	876.25
468.012	867.25
468.47	894.25
468.928	905.25
469.385	893.25
469.843	922.25
470.3	910.25
470.758	941.25
471.215	987.25
471.673	1004.25
472.13	984.25
472.588	1013.25
473.045	1009.25
473.503	1003.25
473.96	1044.25
474.417	1062.25
474.875	1088.25
475.332	1086.25
475.789	1124.25
476.246	1140.25
476.704	1174.25
477.161	1171.25
477.618	1179.25
478.075	1206.25
478.532	1221.25
478.989	1261.25
479.446	1360.25
479.903	1350.25
480.36	1332.25
480.817	1352.25
481.274	1368.25
481.731	1384.25
482.188	1406.25
482.645	1446.25
483.102	1450.25
483.558	1498.25
484.015	1514.25
484.472	1514.25
484.929	1546.25
485.385	1540.25
485.842	1538.25
486.299	1517.25
486.755	1562.25
487.212	1528.25
487.668	1496.25
488.125	1477.25
488.582	1449.25
489.038	1469.25
489.494	1465.25
489.951	1503.25
490.407	1510.25
490.864	1498.25
491.32	1496.25
491.776	1453.25
492.233	1515.25
492.689	1533.25
493.145	1548.25
493.602	1463.25
494.058	1511.25
494.514	1571.25
494.97	1538.25
495.426	1560.25
495.882	1567.25
496.338	1602.25
496.794	1628.25
497.251	1571.25
497.707	1637.25
498.163	1640.25
498.618	1617.25
499.074	1654.25
499.53	1654.25
499.986	1637.25
500.442	1639.25
500.898	1606.25
501.354	1650.25
501.809	1623.25
502.265	1631.25
502.721	1676.25
503.177	1676.25
503.632	1677.25
504.088	1682.25
504.543	1699.25
504.999	1723.25
505.455	1761.25
505.91	1739.25
506.366	1681.25
506.821	1717.25
507.277	1703.25
507.732	1723.25
508.187	1680.25
508.643	1714.25
509.098	1717.25
509.553	1751.25
510.009	1732.25
510.464	1759.25
510.919	1806.25
511.375	1826.25
511.83	1869.25
512.285	1883.25
512.74	1929.25
513.195	1934.25
513.65	1976.25
514.105	1997.25
514.56	2058.25
515.015	2039.25
515.47	2071.25
515.925	2015.25
516.38	2100.25
516.835	2044.25
517.29	2067.25
517.745	2045.25
518.2	1973.25
518.655	1959.25
519.109	1956.25
519.564	1947.25
520.019	1958.25
520.474	1932.25
520.928	1919.25
521.383	1855.25
521.838	1891.25
522.292	1843.25
522.747	1819.25
523.201	1869.25
523.656	1804.25
524.11	1827.25
524.565	1815.25
525.019	1813.25
525.474	1811.25
525.928	1800.25
526.382	1773.25
526.837	1738.25
527.291	1817.25
527.745	1790.25
528.2	1767.25
528.654	1785.25
529.108	1791.25
529.562	1771.25
530.016	1800.25
530.47	1794.25
530.925	1811.25
531.379	1761.25
531.833	1791.25
532.287	1813.25
532.741	1789.25
533.195	1766.25
533.649	1834.25
534.103	1774.25
534.556	1805.25
535.01	1771.25
535.464	1790.25
535.918	1793.25
536.372	1825.25
536.826	1797.25
537.279	1784.25
537.733	1811.25
538.187	1809.25
538.64	1761.25
539.094	1827.25
539.548	1808.25
540.001	1840.25
540.455	1837.25
540.908	1861.25
541.362	1847.25
541.815	1866.25
542.269	1920.25
542.722	1971.25
543.175	1949.25
543.629	2015.25
544.082	1970.25
544.536	2001.25
544.989	2008.25
545.442	2031.25
545.895	2013.25
546.349	2008.25
546.802	2023.25
547.255	2034.25
547.708	2026.25
548.161	2059.25
548.614	2043.25
549.067	2067.25
549.52	2077.25
549.973	2049.25
550.426	2058.25
550.879	2022.25
551.332	2010.25
551.785	2065.25
552.238	2040.25
552.691	2047.25
553.144	2063.25
553.596	2117.25
554.049	2159.25
554.502	2226.25
554.955	2283.25
555.407	2240.25
555.86	2237.25
556.313	2227.25
556.765	2202.25
557.218	2201.25
557.67	2177.25
558.123	2116.25
558.576	2113.25
559.028	2140.25
559.48	2134.25
559.933	2169.25
560.385	2101.25
560.838	1988.25
561.29	1920.25
561.742	1931.25
562.195	1920.25
562.647	1872.25
563.099	1900.25
563.551	1862.25
564.004	1875.25
564.456	1855.25
564.908	1808.25
565.36	1813.25
565.812	1740.25
566.264	1719.25
566.716	1703.25
567.168	1649.25
567.62	1679.25
568.072	1679.25
568.524	1673.25
568.976	1650.25
569.428	1630.25
569.88	1645.25
570.332	1643.25
570.784	1631.25
571.235	1713.25
571.687	1668.25
572.139	1687.25
572.59	1683.25
573.042	1696.25
573.494	1699.25
573.945	1683.25
574.397	1656.25
574.849	1662.25
575.3	1607.25
575.752	1594.25
576.203	1595.25
576.655	1617.25
577.106	1572.25
577.557	1577.25
578.009	1559.25
578.46	1561.25
578.912	1552.25
579.363	1563.25
579.814	1541.25
580.265	1551.25
580.717	1555.25
581.168	1576.25
581.619	1567.25
582.07	1589.25
582.521	1574.25
582.972	1594.25
583.423	1566.25
583.875	1586.25
584.326	1565.25
584.777	1624.25
585.227	1655.25
585.678	1655.25
586.129	1684.25
586.58	1699.25
587.031	1726.25
587.482	1749.25
587.933	1816.25
588.384	1781.25
588.834	1797.25
589.285	1763.25
589.736	1770.25
590.186	1774.25
590.637	1810.25
591.088	1745.25
591.538	1685.25
591.989	1691.25
592.439	1662.25
592.89	1613.25
593.34	1599.25
593.791	1663.25
594.241	1600.25
594.692	1611.25
595.142	1573.25
595.593	1592.25
596.043	1603.25
596.493	1617.25
596.943	1567.25
597.394	1662.25
597.844	1681.25
598.294	1693.25
598.744	1742.25
599.195	1866.25
599.645	1958.25
600.095	2088.25
600.545	2150.25
600.995	2317.25
601.445	2373.25
601.895	2485.25
602.345	2559.25
602.795	2592.25
603.245	2387.25
603.695	2347.25
604.145	2192.25
604.594	2125.25
605.044	1968.25
605.494	1809.25
605.944	1735.25
606.393	1667.25
606.843	1615.25
607.293	1645.25
607.743	1609.25
608.192	1655.25
608.642	1660.25
609.091	1626.25
609.541	1635.25
609.99	1638.25
610.44	1609.25
610.889	1590.25
611.339	1566.25
611.788	1581.25
612.238	1548.25
612.687	1549.25
613.136	1553.25
613.586	1584.25
614.035	1577.25
614.484	1566.25
614.933	1612.25
615.383	1569.25
615.832	1515.25
616.281	1511.25
616.73	1513.25
617.179	1440.25
617.628	1445.25
618.077	1401.25
618.526	1400.25
618.975	1373.25
619.424	1317.25
619.873	1333.25
620.322	1360.25
620.771	1333.25
621.22	1336.25
621.669	1261.25
622.118	1271.25
622.567	1261.25
623.015	1232.25
623.464	1215.25
623.913	1253.25
624.361	1230.25
624.81	1193.25
625.259	1184.25
625.707	1170.25
626.156	1251.25
626.604	1223.25
627.053	1219.25
627.501	1247.25
627.95	1248.25
628.398	1262.25
628.847	1259.25
629.295	1221.25
629.744	1233.25
630.192	1220.25
630.64	1191.25
631.089	1174.25
631.537	1163.25
631.985	1122.25
632.433	1107.25
632.881	1116.25
633.33	1084.25
633.778	1121.25
634.226	1127.25
634.674	1131.25
635.122	1136.25
635.57	1159.25
636.018	1185.25
636.466	1189.25
636.914	1180.25
637.362	1166.25
637.81	1185.25
638.258	1233.25
638.705	1256.25
639.153	1275.25
639.601	1285.25
640.049	1358.25
640.497	1349.25
640.944	1383.25
641.392	1345.25
641.84	1237.25
642.287	1150.25
642.735	1137.25
643.182	1128.25
643.63	1099.25
644.078	1071.25
644.525	1086.25
644.973	1051.25
645.42	1118.25
645.867	1099.25
646.315	1065.25
646.762	1113.25
647.21	1065.25
647.657	1090.25
648.104	1105.25
648.551	1076.25
648.999	1055.25
649.446	1041.25
649.893	1065.25
650.34	1023.25
650.787	1096.25
651.234	1098.25
651.682	1159.25
652.129	1271.25
652.576	1447.25
653.023	1669.25
653.47	1818.25
653.917	1903.25
654.363	1893.25
654.81	2011.25
655.257	2151.25
655.704	1826.25
656.151	1355.25
656.598	1171.25
657.044	1086.25
657.491	1042.25
657.938	1056.25
658.385	1024.25
658.831	1022.25
659.278	1001.25
659.724	1015.25
660.171	1013.25
660.618	960.25
661.064	948.25
661.511	965.25
661.957	961.25
662.404	954.25
662.85	965.25
663.296	947.25
663.743	969.25
664.189	937.25
664.635	983.25
665.082	959.25
665.528	955.25
665.974	969.25
666.42	943.25
666.867	951.25
667.313	925.25
667.759	904.25
668.205	897.25
668.651	915.25
669.097	885.25
669.543	899.25
669.989	913.25
670.435	912.25
670.881	946.25
671.327	948.25
671.773	1002.25
672.219	1088.25
672.665	1167.25
673.11	1247.25
673.556	1276.25
674.002	1323.25
674.448	1353.25
674.893	1172.25
675.339	1022.25
675.785	904.25
676.23	874.25
676.676	844.25
677.122	828.25
677.567	823.25
678.013	767.25
678.458	802.25
678.904	765.25
679.349	763.25
679.794	785.25
680.24	815.25
680.685	737.25
681.131	759.25
681.576	769.25
682.021	763.25
682.466	777.25
682.912	796.25
683.357	825.25
683.802	868.25
684.247	930.25
684.692	1010.25
685.137	1072.25
685.583	1113.25
686.028	1154.25
686.473	1132.25
686.918	992.25
687.363	873.25
687.807	855.25
688.252	817.25
688.697	761.25
689.142	749.25
689.587	749.25
690.032	721.25
690.477	787.25
690.921	802.25
691.366	875.25
691.811	929.25
692.255	971.25
692.7	1081.25
693.145	1451.25
693.589	2201.25
694.034	2981.25
694.478	3333.25
694.923	3107.25
695.367	3845.25
695.812	3450.25
696.256	1405.25
696.701	878.25
697.145	771.25
697.59	729.25
698.034	714.25
698.478	720.25
698.922	720.25
699.367	754.25
699.811	767.25
700.255	847.25
700.699	909.25
701.143	1007.25
701.588	1091.25
702.032	1095.25
702.476	1149.25
702.92	1154.25
703.364	1314.25
703.808	1974.25
704.252	2855.25
704.696	3199.25
705.14	2978.25
705.584	3797.25
706.027	2983.25
706.471	1406.25
706.915	916.25
707.359	789.25
707.803	766.25
708.246	707.25
708.69	693.25
709.134	703.25
709.577	691.25
710.021	705.25
710.465	712.25
710.908	687.25
711.352	706.25
711.795	763.25
712.239	859.25
712.682	843.25
713.126	842.25
713.569	913.25
714.012	871.25
714.456	706.25
714.899	663.25
715.342	654.25
715.786	604.25
716.229	579.25
716.672	552.25
717.115	585.25
717.558	573.25
718.002	615.25
718.445	593.25
718.888	645.25
719.331	665.25
719.774	673.25
720.217	672.25
720.66	625.25
721.103	611.25
721.546	589.25
721.989	573.25
722.432	549.25
722.874	535.25
723.317	566.25
723.76	579.25
724.203	683.25
724.645	854.25
725.088	1129.25
725.531	1141.25
725.974	1141.25
726.416	1213.25
726.859	786.25
727.301	597.25
727.744	543.25
728.187	531.25
728.629	545.25
729.071	580.25
729.514	628.25
729.956	613.25
730.399	656.25
730.841	657.25
731.283	646.25
731.726	629.25
732.168	599.25
732.61	640.25
733.053	692.25
733.495	741.25
733.937	799.25
734.379	927.25
734.821	1113.25
735.263	1549.25
735.705	2741.25
736.148	4597.25
736.59	5448.25
737.032	4969.25
737.474	5429.25
737.916	2472.25
738.357	1147.25
738.799	825.25
739.241	709.25
739.683	683.25
740.125	686.25
740.567	717.25
741.008	724.25
741.45	793.25
741.892	782.25
742.334	835.25
742.775	795.25
