Data from 20170802-ORNL-NYSim-Air_HRD10391_10-36-18-584.txt Node
Date: Wed Aug 02 10:36:18 EDT 2017
User: Ender
Spectrometer: HR+D1039
Trigger mode: 0
Integration Time (sec): 3.750000E-3
Scans to average: 1
Electric dark correction enabled: true
Nonlinearity correction enabled: false
Boxcar width: 0
XAxis mode: Wavelengths
Number of Pixels in Spectrum: 2048
>>>>>Begin Spectral Data<<<<<
187.836	6.12
188.309	6.12
188.782	6.12
189.255	-2.88
189.728	-5.88
190.201	-10.88
190.674	7.12
191.147	-9.88
191.619	-14.88
192.092	0.12
192.565	-9.88
193.038	2.12
193.511	-10.88
193.984	3.12
194.456	0.12
194.929	13.12
195.402	15.12
195.874	18.12
196.347	19.12
196.82	17.12
197.292	40.12
197.765	47.12
198.237	37.12
198.71	47.12
199.182	32.12
199.655	49.12
200.127	43.12
200.6	43.12
201.072	45.12
201.544	54.12
202.017	50.12
202.489	64.12
202.961	53.12
203.433	70.12
203.906	77.12
204.378	67.12
204.85	82.12
205.322	83.12
205.794	66.12
206.266	67.12
206.739	75.12
207.211	75.12
207.683	75.12
208.155	84.12
208.627	76.12
209.099	86.12
209.57	87.12
210.042	90.12
210.514	107.12
210.986	69.12
211.458	58.12
211.93	84.12
212.402	89.12
212.873	84.12
213.345	87.12
213.817	92.12
214.288	102.12
214.76	80.12
215.232	80.12
215.703	77.12
216.175	75.12
216.646	83.12
217.118	85.12
217.589	84.12
218.061	91.12
218.532	85.12
219.004	87.12
219.475	84.12
219.946	74.12
220.418	87.12
220.889	73.12
221.36	90.12
221.832	74.12
222.303	76.12
222.774	68.12
223.245	81.12
223.717	90.12
224.188	91.12
224.659	70.12
225.13	83.12
225.601	95.12
226.072	80.12
226.543	63.12
227.014	87.12
227.485	74.12
227.956	71.12
228.427	75.12
228.898	72.12
229.369	83.12
229.839	77.12
230.31	75.12
230.781	90.12
231.252	92.12
231.722	78.12
232.193	81.12
232.664	79.12
233.135	86.12
233.605	90.12
234.076	87.12
234.546	84.12
235.017	93.12
235.487	80.12
235.958	73.12
236.428	76.12
236.899	71.12
237.369	89.12
237.84	77.12
238.31	71.12
238.78	87.12
239.251	89.12
239.721	79.12
240.191	77.12
240.662	88.12
241.132	76.12
241.602	87.12
242.072	75.12
242.542	69.12
243.013	92.12
243.483	99.12
243.953	85.12
244.423	90.12
244.893	92.12
245.363	87.12
245.833	101.12
246.303	102.12
246.773	104.12
247.243	99.12
247.712	79.12
248.182	82.12
248.652	79.12
249.122	98.12
249.592	90.12
250.061	94.12
250.531	99.12
251.001	90.12
251.471	104.12
251.94	107.12
252.41	96.12
252.879	99.12
253.349	85.12
253.818	87.12
254.288	77.12
254.757	89.12
255.227	98.12
255.696	88.12
256.166	93.12
256.635	105.12
257.105	101.12
257.574	93.12
258.043	78.12
258.513	92.12
258.982	117.12
259.451	103.12
259.92	111.12
260.389	94.12
260.859	100.12
261.328	119.12
261.797	111.12
262.266	97.12
262.735	106.12
263.204	131.12
263.673	109.12
264.142	101.12
264.611	105.12
265.08	115.12
265.549	114.12
266.018	92.12
266.487	118.12
266.955	109.12
267.424	108.12
267.893	113.12
268.362	99.12
268.83	104.12
269.299	105.12
269.768	103.12
270.236	106.12
270.705	96.12
271.174	93.12
271.642	113.12
272.111	119.12
272.579	109.12
273.048	104.12
273.516	110.12
273.985	116.12
274.453	94.12
274.922	115.12
275.39	114.12
275.858	114.12
276.327	123.12
276.795	118.12
277.263	153.12
277.731	119.12
278.2	119.12
278.668	111.12
279.136	108.12
279.604	115.12
280.072	125.12
280.54	112.12
281.008	119.12
281.477	114.12
281.945	131.12
282.413	121.12
282.881	98.12
283.348	99.12
283.816	121.12
284.284	116.12
284.752	126.12
285.22	114.12
285.688	121.12
286.156	131.12
286.623	132.12
287.091	113.12
287.559	119.12
288.026	137.12
288.494	132.12
288.962	125.12
289.429	125.12
289.897	130.12
290.364	114.12
290.832	121.12
291.3	117.12
291.767	136.12
292.234	115.12
292.702	133.12
293.169	129.12
293.637	135.12
294.104	131.12
294.571	129.12
295.039	132.12
295.506	135.12
295.973	120.12
296.44	127.12
296.908	125.12
297.375	135.12
297.842	146.12
298.309	137.12
298.776	125.12
299.243	127.12
299.71	142.12
300.177	128.12
300.644	142.12
301.111	137.12
301.578	159.12
302.045	143.12
302.512	129.12
302.979	139.12
303.446	150.12
303.913	157.12
304.379	161.12
304.846	137.12
305.313	158.12
305.78	149.12
306.246	129.12
306.713	141.12
307.18	149.12
307.646	120.12
308.113	149.12
308.579	147.12
309.046	161.12
309.512	161.12
309.979	156.12
310.445	157.12
310.912	169.12
311.378	166.12
311.845	150.12
312.311	153.12
312.777	167.12
313.244	158.12
313.71	165.12
314.176	151.12
314.642	161.12
315.109	182.12
315.575	172.12
316.041	159.12
316.507	167.12
316.973	170.12
317.439	163.12
317.905	167.12
318.371	152.12
318.837	172.12
319.303	176.12
319.769	173.12
320.235	176.12
320.701	184.12
321.167	200.12
321.633	174.12
322.099	179.12
322.564	185.12
323.03	170.12
323.496	187.12
323.962	195.12
324.427	179.12
324.893	197.12
325.359	180.12
325.824	190.12
326.29	192.12
326.755	192.12
327.221	184.12
327.686	205.12
328.152	198.12
328.617	190.12
329.083	187.12
329.548	192.12
330.014	201.12
330.479	201.12
330.944	198.12
331.41	218.12
331.875	202.12
332.34	168.12
332.805	212.12
333.271	182.12
333.736	212.12
334.201	188.12
334.666	217.12
335.131	191.12
335.596	208.12
336.061	200.12
336.526	225.12
336.991	202.12
337.456	214.12
337.921	201.12
338.386	202.12
338.851	201.12
339.316	206.12
339.781	217.12
340.246	218.12
340.711	215.12
341.175	209.12
341.64	223.12
342.105	225.12
342.569	231.12
343.034	248.12
343.499	236.12
343.963	226.12
344.428	213.12
344.893	248.12
345.357	229.12
345.822	237.12
346.286	248.12
346.751	249.12
347.215	249.12
347.679	240.12
348.144	256.12
348.608	254.12
349.073	251.12
349.537	271.12
350.001	264.12
350.465	249.12
350.93	275.12
351.394	265.12
351.858	286.12
352.322	289.12
352.786	278.12
353.25	288.12
353.715	275.12
354.179	276.12
354.643	295.12
355.107	305.12
355.571	301.12
356.035	312.12
356.498	279.12
356.962	291.12
357.426	296.12
357.89	279.12
358.354	279.12
358.818	282.12
359.281	289.12
359.745	295.12
360.209	286.12
360.673	295.12
361.136	279.12
361.6	285.12
362.064	285.12
362.527	301.12
362.991	310.12
363.454	291.12
363.918	299.12
364.381	292.12
364.845	312.12
365.308	305.12
365.772	301.12
366.235	304.12
366.698	291.12
367.162	318.12
367.625	287.12
368.088	327.12
368.552	309.12
369.015	313.12
369.478	314.12
369.941	323.12
370.404	334.12
370.867	334.12
371.331	316.12
371.794	309.12
372.257	322.12
372.72	326.12
373.183	327.12
373.646	323.12
374.109	304.12
374.572	334.12
375.035	353.12
375.497	346.12
375.96	329.12
376.423	344.12
376.886	340.12
377.349	377.12
377.811	348.12
378.274	367.12
378.737	355.12
379.199	349.12
379.662	343.12
380.125	346.12
380.587	379.12
381.05	368.12
381.512	379.12
381.975	387.12
382.437	411.12
382.9	388.12
383.362	367.12
383.825	401.12
384.287	380.12
384.75	354.12
385.212	378.12
385.674	394.12
386.136	400.12
386.599	363.12
387.061	417.12
387.523	414.12
387.985	408.12
388.447	426.12
388.91	404.12
389.372	445.12
389.834	417.12
390.296	411.12
390.758	413.12
391.22	403.12
391.682	431.12
392.144	421.12
392.606	417.12
393.068	397.12
393.529	448.12
393.991	474.12
394.453	442.12
394.915	419.12
395.377	409.12
395.838	437.12
396.3	429.12
396.762	405.12
397.224	433.12
397.685	445.12
398.147	424.12
398.608	444.12
399.07	436.12
399.531	456.12
399.993	432.12
400.454	465.12
400.916	456.12
401.377	477.12
401.839	483.12
402.3	489.12
402.762	507.12
403.223	523.12
403.684	508.12
404.145	483.12
404.607	445.12
405.068	469.12
405.529	479.12
405.99	494.12
406.451	471.12
406.913	495.12
407.374	492.12
407.835	463.12
408.296	485.12
408.757	482.12
409.218	521.12
409.679	528.12
410.14	520.12
410.601	539.12
411.062	537.12
411.522	565.12
411.983	574.12
412.444	554.12
412.905	589.12
413.366	584.12
413.826	639.12
414.287	690.12
414.748	811.12
415.208	865.12
415.669	717.12
416.13	633.12
416.59	640.12
417.051	641.12
417.511	689.12
417.972	782.12
418.432	811.12
418.893	862.12
419.353	845.12
419.814	696.12
420.274	595.12
420.734	581.12
421.195	576.12
421.655	595.12
422.115	610.12
422.576	598.12
423.036	621.12
423.496	623.12
423.956	645.12
424.416	709.12
424.876	755.12
425.336	720.12
425.797	732.12
426.257	722.12
426.717	661.12
427.177	607.12
427.637	613.12
428.097	627.12
428.556	670.12
429.016	708.12
429.476	695.12
429.936	649.12
430.396	653.12
430.856	634.12
431.315	639.12
431.775	673.12
432.235	731.12
432.694	754.12
433.154	706.12
433.614	702.12
434.073	681.12
434.533	630.12
434.993	609.12
435.452	647.12
435.912	636.12
436.371	611.12
436.83	643.12
437.29	639.12
437.749	643.12
438.209	642.12
438.668	645.12
439.127	661.12
439.587	636.12
440.046	638.12
440.505	660.12
440.964	693.12
441.424	696.12
441.883	695.12
442.342	671.12
442.801	652.12
443.26	653.12
443.719	648.12
444.178	659.12
444.637	674.12
445.096	691.12
445.555	665.12
446.014	665.12
446.473	656.12
446.932	683.12
447.391	697.12
447.849	691.12
448.308	685.12
448.767	682.12
449.226	686.12
449.685	704.12
450.143	752.12
450.602	719.12
451.061	697.12
451.519	701.12
451.978	673.12
452.436	711.12
452.895	688.12
453.353	675.12
453.812	689.12
454.27	695.12
454.729	696.12
455.187	708.12
455.646	745.12
456.104	710.12
456.562	745.12
457.021	737.12
457.479	691.12
457.937	737.12
458.395	751.12
458.854	741.12
459.312	733.12
459.77	748.12
460.228	754.12
460.686	795.12
461.144	754.12
461.602	758.12
462.06	736.12
462.518	767.12
462.976	787.12
463.434	754.12
463.892	781.12
464.35	784.12
464.808	814.12
465.266	804.12
465.724	807.12
466.181	778.12
466.639	822.12
467.097	837.12
467.555	864.12
468.012	871.12
468.47	850.12
468.928	902.12
469.385	905.12
469.843	922.12
470.3	905.12
470.758	924.12
471.215	951.12
471.673	947.12
472.13	984.12
472.588	1008.12
473.045	1024.12
473.503	1013.12
473.96	1018.12
474.417	1070.12
474.875	1061.12
475.332	1098.12
475.789	1121.12
476.246	1119.12
476.704	1150.12
477.161	1155.12
477.618	1166.12
478.075	1209.12
478.532	1203.12
478.989	1247.12
479.446	1285.12
479.903	1303.12
480.36	1328.12
480.817	1326.12
481.274	1309.12
481.731	1382.12
482.188	1383.12
482.645	1456.12
483.102	1419.12
483.558	1437.12
484.015	1504.12
484.472	1499.12
484.929	1503.12
485.385	1473.12
485.842	1473.12
486.299	1527.12
486.755	1519.12
487.212	1503.12
487.668	1450.12
488.125	1451.12
488.582	1415.12
489.038	1446.12
489.494	1438.12
489.951	1465.12
490.407	1405.12
490.864	1433.12
491.32	1489.12
491.776	1487.12
492.233	1501.12
492.689	1466.12
493.145	1500.12
493.602	1449.12
494.058	1529.12
494.514	1509.12
494.97	1488.12
495.426	1551.12
495.882	1532.12
496.338	1526.12
496.794	1519.12
497.251	1574.12
497.707	1553.12
498.163	1586.12
498.618	1578.12
499.074	1601.12
499.53	1639.12
499.986	1624.12
500.442	1648.12
500.898	1567.12
501.354	1613.12
501.809	1630.12
502.265	1602.12
502.721	1584.12
503.177	1607.12
503.632	1678.12
504.088	1654.12
504.543	1664.12
504.999	1721.12
505.455	1717.12
505.91	1686.12
506.366	1701.12
506.821	1661.12
507.277	1635.12
507.732	1686.12
508.187	1652.12
508.643	1718.12
509.098	1715.12
509.553	1707.12
510.009	1785.12
510.464	1781.12
510.919	1802.12
511.375	1805.12
511.83	1844.12
512.285	1842.12
512.74	1899.12
513.195	1917.12
513.65	1991.12
514.105	1957.12
514.56	1993.12
515.015	2089.12
515.47	2033.12
515.925	2004.12
516.38	2031.12
516.835	1991.12
517.29	2000.12
517.745	2014.12
518.2	1993.12
518.655	1951.12
519.109	1930.12
519.564	1891.12
520.019	1879.12
520.474	1855.12
520.928	1888.12
521.383	1869.12
521.838	1858.12
522.292	1843.12
522.747	1773.12
523.201	1794.12
523.656	1780.12
524.11	1778.12
524.565	1781.12
525.019	1808.12
525.474	1787.12
525.928	1764.12
526.382	1765.12
526.837	1793.12
527.291	1786.12
527.745	1729.12
528.2	1783.12
528.654	1735.12
529.108	1779.12
529.562	1783.12
530.016	1724.12
530.47	1728.12
530.925	1759.12
531.379	1712.12
531.833	1800.12
532.287	1767.12
532.741	1762.12
533.195	1758.12
533.649	1734.12
534.103	1744.12
534.556	1744.12
535.01	1728.12
535.464	1757.12
535.918	1767.12
536.372	1787.12
536.826	1754.12
537.279	1708.12
537.733	1799.12
538.187	1789.12
538.64	1741.12
539.094	1749.12
539.548	1793.12
540.001	1764.12
540.455	1829.12
540.908	1803.12
541.362	1813.12
541.815	1870.12
542.269	1879.12
542.722	1868.12
543.175	1898.12
543.629	1889.12
544.082	1936.12
544.536	1953.12
544.989	1987.12
545.442	1949.12
545.895	1953.12
546.349	1956.12
546.802	1989.12
547.255	1971.12
547.708	1989.12
548.161	1975.12
548.614	2008.12
549.067	2050.12
549.52	2061.12
549.973	1995.12
550.426	1989.12
550.879	1982.12
551.332	1991.12
551.785	1992.12
552.238	1981.12
552.691	1997.12
553.144	2054.12
553.596	2026.12
554.049	2089.12
554.502	2143.12
554.955	2208.12
555.407	2200.12
555.86	2183.12
556.313	2175.12
556.765	2155.12
557.218	2108.12
557.67	2110.12
558.123	2111.12
558.576	2095.12
559.028	2093.12
559.48	2108.12
559.933	2104.12
560.385	2050.12
560.838	1942.12
561.29	1921.12
561.742	1895.12
562.195	1830.12
562.647	1815.12
563.099	1855.12
563.551	1797.12
564.004	1889.12
564.456	1847.12
564.908	1790.12
565.36	1780.12
565.812	1695.12
566.264	1711.12
566.716	1670.12
567.168	1653.12
567.62	1672.12
568.072	1625.12
568.524	1635.12
568.976	1639.12
569.428	1632.12
569.88	1586.12
570.332	1629.12
570.784	1594.12
571.235	1634.12
571.687	1633.12
572.139	1650.12
572.59	1640.12
573.042	1659.12
573.494	1648.12
573.945	1660.12
574.397	1590.12
574.849	1573.12
575.3	1598.12
575.752	1545.12
576.203	1548.12
576.655	1534.12
577.106	1584.12
577.557	1539.12
578.009	1526.12
578.46	1574.12
578.912	1525.12
579.363	1522.12
579.814	1475.12
580.265	1525.12
580.717	1540.12
581.168	1515.12
581.619	1533.12
582.07	1530.12
582.521	1561.12
582.972	1546.12
583.423	1522.12
583.875	1517.12
584.326	1544.12
584.777	1585.12
585.227	1615.12
585.678	1580.12
586.129	1640.12
586.58	1698.12
587.031	1663.12
587.482	1721.12
587.933	1717.12
588.384	1750.12
588.834	1754.12
589.285	1730.12
589.736	1772.12
590.186	1752.12
590.637	1738.12
591.088	1667.12
591.538	1647.12
591.989	1619.12
592.439	1589.12
592.89	1571.12
593.34	1614.12
593.791	1593.12
594.241	1593.12
594.692	1532.12
595.142	1549.12
595.593	1573.12
596.043	1566.12
596.493	1593.12
596.943	1581.12
597.394	1647.12
597.844	1636.12
598.294	1619.12
598.744	1696.12
599.195	1803.12
599.645	1874.12
600.095	1998.12
600.545	2113.12
600.995	2219.12
601.445	2309.12
601.895	2443.12
602.345	2503.12
602.795	2491.12
603.245	2405.12
603.695	2284.12
604.145	2133.12
604.594	2010.12
605.044	1926.12
605.494	1789.12
605.944	1695.12
606.393	1657.12
606.843	1589.12
607.293	1562.12
607.743	1625.12
608.192	1563.12
608.642	1611.12
609.091	1600.12
609.541	1613.12
609.99	1607.12
610.44	1565.12
610.889	1560.12
611.339	1553.12
611.788	1501.12
612.238	1524.12
612.687	1542.12
613.136	1484.12
613.586	1552.12
614.035	1542.12
614.484	1543.12
614.933	1528.12
615.383	1532.12
615.832	1526.12
616.281	1480.12
616.73	1418.12
617.179	1431.12
617.628	1379.12
618.077	1337.12
618.526	1334.12
618.975	1352.12
619.424	1316.12
619.873	1299.12
620.322	1349.12
620.771	1295.12
621.22	1286.12
621.669	1283.12
622.118	1263.12
622.567	1183.12
623.015	1215.12
623.464	1202.12
623.913	1219.12
624.361	1169.12
624.81	1191.12
625.259	1213.12
625.707	1167.12
626.156	1185.12
626.604	1189.12
627.053	1170.12
627.501	1201.12
627.95	1255.12
628.398	1258.12
628.847	1216.12
629.295	1226.12
629.744	1184.12
630.192	1219.12
630.64	1167.12
631.089	1145.12
631.537	1132.12
631.985	1101.12
632.433	1103.12
632.881	1099.12
633.33	1121.12
633.778	1094.12
634.226	1102.12
634.674	1086.12
635.122	1124.12
635.57	1125.12
636.018	1150.12
636.466	1131.12
636.914	1149.12
637.362	1146.12
637.81	1133.12
638.258	1214.12
638.705	1236.12
639.153	1261.12
639.601	1283.12
640.049	1286.12
640.497	1316.12
640.944	1333.12
641.392	1283.12
641.84	1195.12
642.287	1151.12
642.735	1093.12
643.182	1053.12
643.63	1024.12
644.078	1028.12
644.525	1052.12
644.973	1057.12
645.42	1051.12
645.867	1108.12
646.315	1025.12
646.762	1106.12
647.21	1090.12
647.657	1083.12
648.104	1064.12
648.551	1031.12
648.999	1025.12
649.446	1017.12
649.893	1009.12
650.34	1057.12
650.787	1059.12
651.234	1079.12
651.682	1149.12
652.129	1260.12
652.576	1402.12
653.023	1595.12
653.47	1768.12
653.917	1798.12
654.363	1881.12
654.81	1918.12
655.257	2044.12
655.704	1717.12
656.151	1349.12
656.598	1150.12
657.044	1059.12
657.491	1021.12
657.938	1003.12
658.385	990.12
658.831	1009.12
659.278	984.12
659.724	954.12
660.171	944.12
660.618	944.12
661.064	909.12
661.511	929.12
661.957	939.12
662.404	907.12
662.85	923.12
663.296	963.12
663.743	960.12
664.189	947.12
664.635	935.12
665.082	969.12
665.528	964.12
665.974	958.12
666.42	900.12
666.867	918.12
667.313	880.12
667.759	874.12
668.205	841.12
668.651	883.12
669.097	893.12
669.543	877.12
669.989	906.12
670.435	900.12
670.881	885.12
671.327	950.12
671.773	966.12
672.219	1067.12
672.665	1125.12
673.11	1243.12
673.556	1237.12
674.002	1285.12
674.448	1322.12
674.893	1177.12
675.339	1009.12
675.785	923.12
676.23	902.12
676.676	811.12
677.122	823.12
677.567	768.12
678.013	791.12
678.458	760.12
678.904	752.12
679.349	743.12
679.794	715.12
680.24	743.12
680.685	749.12
681.131	777.12
681.576	738.12
682.021	743.12
682.466	750.12
682.912	781.12
683.357	790.12
683.802	823.12
684.247	908.12
684.692	1045.12
685.137	1072.12
685.583	1093.12
686.028	1143.12
686.473	1136.12
686.918	951.12
687.363	881.12
687.807	821.12
688.252	783.12
688.697	777.12
689.142	741.12
689.587	748.12
690.032	728.12
690.477	771.12
690.921	789.12
691.366	866.12
691.811	903.12
692.255	932.12
692.7	1031.12
693.145	1413.12
693.589	2128.12
694.034	2940.12
694.478	3263.12
694.923	2972.12
695.367	3735.12
695.812	3366.12
696.256	1293.12
696.701	866.12
697.145	766.12
697.59	732.12
698.034	710.12
698.478	718.12
698.922	696.12
699.367	716.12
699.811	727.12
700.255	821.12
700.699	891.12
701.143	949.12
701.588	1045.12
702.032	1075.12
702.476	1110.12
702.92	1142.12
703.364	1316.12
703.808	2001.12
704.252	2693.12
704.696	3093.12
705.14	2907.12
705.584	3647.12
706.027	2906.12
706.471	1287.12
706.915	891.12
707.359	779.12
707.803	709.12
708.246	675.12
708.69	692.12
709.134	685.12
709.577	663.12
710.021	663.12
710.465	671.12
710.908	655.12
711.352	677.12
711.795	742.12
712.239	813.12
712.682	868.12
713.126	827.12
713.569	907.12
714.012	823.12
714.456	689.12
714.899	681.12
715.342	631.12
715.786	591.12
716.229	579.12
716.672	584.12
717.115	587.12
717.558	555.12
718.002	564.12
718.445	582.12
718.888	622.12
719.331	657.12
719.774	695.12
720.217	679.12
720.66	655.12
721.103	633.12
721.546	583.12
721.989	564.12
722.432	531.12
722.874	547.12
723.317	525.12
723.76	573.12
724.203	648.12
724.645	823.12
725.088	1037.12
725.531	1117.12
725.974	1099.12
726.416	1177.12
726.859	776.12
727.301	595.12
727.744	535.12
728.187	546.12
728.629	547.12
729.071	554.12
729.514	595.12
729.956	631.12
730.399	632.12
730.841	620.12
731.283	603.12
731.726	624.12
732.168	616.12
732.61	618.12
733.053	652.12
733.495	729.12
733.937	797.12
734.379	906.12
734.821	1081.12
735.263	1489.12
735.705	2666.12
736.148	4413.12
736.59	5204.12
737.032	4910.12
737.474	5267.12
737.916	2441.12
738.357	1157.12
738.799	760.12
739.241	706.12
739.683	675.12
740.125	692.12
740.567	709.12
741.008	726.12
741.45	767.12
741.892	764.12
742.334	846.12
742.775	776.12
743.217	781.12
