Data from 20170802-ORNL-NYSim-Air_HRD10391_10-36-19-587.txt Node
Date: Wed Aug 02 10:36:19 EDT 2017
User: Ender
Spectrometer: HR+D1039
Trigger mode: 0
Integration Time (sec): 3.750000E-3
Scans to average: 1
Electric dark correction enabled: true
Nonlinearity correction enabled: false
Boxcar width: 0
XAxis mode: Wavelengths
Number of Pixels in Spectrum: 2048
>>>>>Begin Spectral Data<<<<<
187.836	-10.69
188.309	-10.69
188.782	-10.69
189.255	19.31
189.728	-5.69
190.201	-15.69
190.674	-5.69
191.147	-7.69
191.619	-2.69
192.092	-4.69
192.565	2.31
193.038	-10.69
193.511	1.31
193.984	8.31
194.456	12.31
194.929	7.31
195.402	13.31
195.874	-0.69
196.347	20.31
196.82	24.31
197.292	25.31
197.765	30.31
198.237	38.31
198.71	43.31
199.182	41.31
199.655	43.31
200.127	49.31
200.6	41.31
201.072	67.31
201.544	63.31
202.017	79.31
202.489	74.31
202.961	78.31
203.433	65.31
203.906	68.31
204.378	81.31
204.85	76.31
205.322	77.31
205.794	78.31
206.266	97.31
206.739	72.31
207.211	73.31
207.683	90.31
208.155	83.31
208.627	80.31
209.099	85.31
209.57	89.31
210.042	85.31
210.514	85.31
210.986	88.31
211.458	84.31
211.93	78.31
212.402	84.31
212.873	86.31
213.345	73.31
213.817	91.31
214.288	86.31
214.76	88.31
215.232	76.31
215.703	68.31
216.175	71.31
216.646	82.31
217.118	69.31
217.589	74.31
218.061	81.31
218.532	70.31
219.004	94.31
219.475	82.31
219.946	73.31
220.418	69.31
220.889	78.31
221.36	84.31
221.832	82.31
222.303	68.31
222.774	90.31
223.245	70.31
223.717	70.31
224.188	67.31
224.659	73.31
225.13	61.31
225.601	84.31
226.072	79.31
226.543	70.31
227.014	82.31
227.485	81.31
227.956	75.31
228.427	93.31
228.898	90.31
229.369	79.31
229.839	86.31
230.31	81.31
230.781	78.31
231.252	84.31
231.722	85.31
232.193	88.31
232.664	72.31
233.135	73.31
233.605	97.31
234.076	79.31
234.546	78.31
235.017	93.31
235.487	71.31
235.958	91.31
236.428	100.31
236.899	84.31
237.369	88.31
237.84	98.31
238.31	84.31
238.78	68.31
239.251	80.31
239.721	92.31
240.191	82.31
240.662	64.31
241.132	90.31
241.602	95.31
242.072	73.31
242.542	96.31
243.013	85.31
243.483	97.31
243.953	82.31
244.423	86.31
244.893	91.31
245.363	88.31
245.833	81.31
246.303	87.31
246.773	95.31
247.243	93.31
247.712	109.31
248.182	92.31
248.652	81.31
249.122	100.31
249.592	100.31
250.061	79.31
250.531	91.31
251.001	86.31
251.471	90.31
251.94	96.31
252.41	73.31
252.879	102.31
253.349	100.31
253.818	121.31
254.288	105.31
254.757	103.31
255.227	101.31
255.696	105.31
256.166	111.31
256.635	104.31
257.105	110.31
257.574	98.31
258.043	94.31
258.513	94.31
258.982	89.31
259.451	107.31
259.92	80.31
260.389	105.31
260.859	96.31
261.328	116.31
261.797	110.31
262.266	94.31
262.735	100.31
263.204	105.31
263.673	126.31
264.142	100.31
264.611	112.31
265.08	86.31
265.549	109.31
266.018	107.31
266.487	99.31
266.955	97.31
267.424	98.31
267.893	104.31
268.362	110.31
268.83	100.31
269.299	114.31
269.768	100.31
270.236	124.31
270.705	109.31
271.174	95.31
271.642	93.31
272.111	106.31
272.579	101.31
273.048	100.31
273.516	112.31
273.985	123.31
274.453	111.31
274.922	108.31
275.39	106.31
275.858	107.31
276.327	124.31
276.795	112.31
277.263	120.31
277.731	126.31
278.2	111.31
278.668	119.31
279.136	122.31
279.604	115.31
280.072	115.31
280.54	122.31
281.008	105.31
281.477	122.31
281.945	121.31
282.413	108.31
282.881	138.31
283.348	112.31
283.816	109.31
284.284	119.31
284.752	125.31
285.22	107.31
285.688	145.31
286.156	124.31
286.623	118.31
287.091	123.31
287.559	135.31
288.026	129.31
288.494	120.31
288.962	111.31
289.429	145.31
289.897	139.31
290.364	132.31
290.832	97.31
291.3	118.31
291.767	132.31
292.234	133.31
292.702	126.31
293.169	140.31
293.637	141.31
294.104	130.31
294.571	137.31
295.039	138.31
295.506	141.31
295.973	143.31
296.44	143.31
296.908	128.31
297.375	128.31
297.842	125.31
298.309	122.31
298.776	137.31
299.243	146.31
299.71	144.31
300.177	140.31
300.644	134.31
301.111	159.31
301.578	147.31
302.045	146.31
302.512	148.31
302.979	143.31
303.446	140.31
303.913	144.31
304.379	159.31
304.846	147.31
305.313	148.31
305.78	145.31
306.246	154.31
306.713	162.31
307.18	162.31
307.646	150.31
308.113	142.31
308.579	159.31
309.046	152.31
309.512	168.31
309.979	160.31
310.445	160.31
310.912	175.31
311.378	152.31
311.845	156.31
312.311	181.31
312.777	164.31
313.244	144.31
313.71	174.31
314.176	162.31
314.642	165.31
315.109	165.31
315.575	152.31
316.041	163.31
316.507	178.31
316.973	168.31
317.439	172.31
317.905	169.31
318.371	176.31
318.837	175.31
319.303	176.31
319.769	182.31
320.235	164.31
320.701	165.31
321.167	183.31
321.633	194.31
322.099	175.31
322.564	178.31
323.03	167.31
323.496	197.31
323.962	194.31
324.427	206.31
324.893	187.31
325.359	174.31
325.824	201.31
326.29	196.31
326.755	190.31
327.221	184.31
327.686	202.31
328.152	204.31
328.617	199.31
329.083	181.31
329.548	199.31
330.014	226.31
330.479	198.31
330.944	208.31
331.41	196.31
331.875	208.31
332.34	205.31
332.805	190.31
333.271	200.31
333.736	210.31
334.201	218.31
334.666	219.31
335.131	200.31
335.596	228.31
336.061	216.31
336.526	205.31
336.991	181.31
337.456	214.31
337.921	215.31
338.386	210.31
338.851	218.31
339.316	201.31
339.781	218.31
340.246	204.31
340.711	221.31
341.175	218.31
341.64	197.31
342.105	202.31
342.569	241.31
343.034	239.31
343.499	210.31
343.963	236.31
344.428	224.31
344.893	238.31
345.357	245.31
345.822	249.31
346.286	249.31
346.751	232.31
347.215	250.31
347.679	246.31
348.144	276.31
348.608	268.31
349.073	267.31
349.537	274.31
350.001	258.31
350.465	275.31
350.93	285.31
351.394	281.31
351.858	275.31
352.322	276.31
352.786	292.31
353.25	280.31
353.715	296.31
354.179	306.31
354.643	274.31
355.107	324.31
355.571	296.31
356.035	286.31
356.498	278.31
356.962	308.31
357.426	302.31
357.89	312.31
358.354	292.31
358.818	296.31
359.281	307.31
359.745	297.31
360.209	286.31
360.673	288.31
361.136	314.31
361.6	285.31
362.064	312.31
362.527	306.31
362.991	312.31
363.454	292.31
363.918	305.31
364.381	305.31
364.845	307.31
365.308	320.31
365.772	324.31
366.235	314.31
366.698	317.31
367.162	329.31
367.625	297.31
368.088	337.31
368.552	307.31
369.015	301.31
369.478	326.31
369.941	339.31
370.404	329.31
370.867	335.31
371.331	326.31
371.794	336.31
372.257	312.31
372.72	325.31
373.183	336.31
373.646	335.31
374.109	343.31
374.572	347.31
375.035	336.31
375.497	340.31
375.96	331.31
376.423	360.31
376.886	354.31
377.349	382.31
377.811	360.31
378.274	339.31
378.737	376.31
379.199	367.31
379.662	364.31
380.125	369.31
380.587	367.31
381.05	382.31
381.512	360.31
381.975	386.31
382.437	410.31
382.9	401.31
383.362	390.31
383.825	373.31
384.287	406.31
384.75	392.31
385.212	400.31
385.674	407.31
386.136	390.31
386.599	381.31
387.061	401.31
387.523	403.31
387.985	403.31
388.447	405.31
388.91	416.31
389.372	418.31
389.834	415.31
390.296	406.31
390.758	421.31
391.22	401.31
391.682	420.31
392.144	417.31
392.606	412.31
393.068	434.31
393.529	454.31
393.991	471.31
394.453	435.31
394.915	443.31
395.377	417.31
395.838	422.31
396.3	401.31
396.762	432.31
397.224	424.31
397.685	424.31
398.147	455.31
398.608	467.31
399.07	445.31
399.531	442.31
399.993	452.31
400.454	470.31
400.916	463.31
401.377	474.31
401.839	491.31
402.3	462.31
402.762	511.31
403.223	520.31
403.684	523.31
404.145	497.31
404.607	469.31
405.068	490.31
405.529	503.31
405.99	488.31
406.451	493.31
406.913	492.31
407.374	496.31
407.835	481.31
408.296	471.31
408.757	520.31
409.218	488.31
409.679	530.31
410.14	529.31
410.601	536.31
411.062	528.31
411.522	582.31
411.983	562.31
412.444	596.31
412.905	588.31
413.366	628.31
413.826	658.31
414.287	710.31
414.748	856.31
415.208	874.31
415.669	708.31
416.13	687.31
416.59	678.31
417.051	668.31
417.511	695.31
417.972	760.31
418.432	815.31
418.893	875.31
419.353	874.31
419.814	683.31
420.274	595.31
420.734	569.31
421.195	606.31
421.655	613.31
422.115	612.31
422.576	605.31
423.036	622.31
423.496	628.31
423.956	668.31
424.416	699.31
424.876	792.31
425.336	804.31
425.797	751.31
426.257	721.31
426.717	718.31
427.177	625.31
427.637	648.31
428.097	622.31
428.556	644.31
429.016	685.31
429.476	680.31
429.936	642.31
430.396	672.31
430.856	638.31
431.315	649.31
431.775	685.31
432.235	765.31
432.694	760.31
433.154	736.31
433.614	717.31
434.073	691.31
434.533	625.31
434.993	612.31
435.452	642.31
435.912	641.31
436.371	651.31
436.83	645.31
437.29	628.31
437.749	643.31
438.209	649.31
438.668	642.31
439.127	684.31
439.587	641.31
440.046	652.31
440.505	675.31
440.964	684.31
441.424	726.31
441.883	728.31
442.342	716.31
442.801	671.31
443.26	665.31
443.719	682.31
444.178	694.31
444.637	694.31
445.096	677.31
445.555	696.31
446.014	688.31
446.473	713.31
446.932	682.31
447.391	719.31
447.849	752.31
448.308	727.31
448.767	714.31
449.226	702.31
449.685	730.31
450.143	757.31
450.602	769.31
451.061	722.31
451.519	717.31
451.978	703.31
452.436	721.31
452.895	724.31
453.353	721.31
453.812	689.31
454.27	701.31
454.729	718.31
455.187	710.31
455.646	723.31
456.104	730.31
456.562	728.31
457.021	753.31
457.479	720.31
457.937	739.31
458.395	740.31
458.854	732.31
459.312	738.31
459.77	732.31
460.228	762.31
460.686	731.31
461.144	766.31
461.602	787.31
462.06	788.31
462.518	810.31
462.976	807.31
463.434	794.31
463.892	834.31
464.35	814.31
464.808	816.31
465.266	823.31
465.724	833.31
466.181	839.31
466.639	842.31
467.097	878.31
467.555	890.31
468.012	880.31
468.47	922.31
468.928	906.31
469.385	975.31
469.843	964.31
470.3	954.31
470.758	989.31
471.215	969.31
471.673	986.31
472.13	1038.31
472.588	1046.31
473.045	999.31
473.503	1014.31
473.96	1094.31
474.417	1059.31
474.875	1103.31
475.332	1120.31
475.789	1170.31
476.246	1184.31
476.704	1151.31
477.161	1195.31
477.618	1169.31
478.075	1210.31
478.532	1220.31
478.989	1259.31
479.446	1342.31
479.903	1378.31
480.36	1334.31
480.817	1326.31
481.274	1372.31
481.731	1408.31
482.188	1425.31
482.645	1453.31
483.102	1487.31
483.558	1520.31
484.015	1529.31
484.472	1565.31
484.929	1576.31
485.385	1570.31
485.842	1557.31
486.299	1568.31
486.755	1528.31
487.212	1546.31
487.668	1518.31
488.125	1488.31
488.582	1434.31
489.038	1533.31
489.494	1520.31
489.951	1511.31
490.407	1503.31
490.864	1531.31
491.32	1499.31
491.776	1514.31
492.233	1541.31
492.689	1522.31
493.145	1515.31
493.602	1498.31
494.058	1544.31
494.514	1531.31
494.97	1578.31
495.426	1544.31
495.882	1592.31
496.338	1594.31
496.794	1640.31
497.251	1601.31
497.707	1612.31
498.163	1633.31
498.618	1622.31
499.074	1640.31
499.53	1652.31
499.986	1636.31
500.442	1675.31
500.898	1657.31
501.354	1678.31
501.809	1643.31
502.265	1640.31
502.721	1705.31
503.177	1658.31
503.632	1668.31
504.088	1678.31
504.543	1747.31
504.999	1770.31
505.455	1741.31
505.91	1741.31
506.366	1745.31
506.821	1715.31
507.277	1702.31
507.732	1684.31
508.187	1726.31
508.643	1760.31
509.098	1734.31
509.553	1751.31
510.009	1737.31
510.464	1833.31
510.919	1832.31
511.375	1858.31
511.83	1872.31
512.285	1909.31
512.74	1978.31
513.195	1965.31
513.65	2014.31
514.105	2030.31
514.56	2005.31
515.015	2081.31
515.47	2064.31
515.925	2034.31
516.38	2091.31
516.835	2085.31
517.29	2040.31
517.745	2032.31
518.2	2022.31
518.655	2000.31
519.109	1989.31
519.564	1950.31
520.019	1900.31
520.474	1893.31
520.928	1898.31
521.383	1917.31
521.838	1898.31
522.292	1881.31
522.747	1834.31
523.201	1872.31
523.656	1837.31
524.11	1848.31
524.565	1827.31
525.019	1825.31
525.474	1834.31
525.928	1816.31
526.382	1828.31
526.837	1779.31
527.291	1778.31
527.745	1809.31
528.2	1862.31
528.654	1790.31
529.108	1802.31
529.562	1795.31
530.016	1766.31
530.47	1810.31
530.925	1806.31
531.379	1784.31
531.833	1797.31
532.287	1789.31
532.741	1803.31
533.195	1832.31
533.649	1824.31
534.103	1782.31
534.556	1788.31
535.01	1766.31
535.464	1779.31
535.918	1805.31
536.372	1831.31
536.826	1790.31
537.279	1793.31
537.733	1804.31
538.187	1775.31
538.64	1756.31
539.094	1816.31
539.548	1905.31
540.001	1862.31
540.455	1844.31
540.908	1794.31
541.362	1893.31
541.815	1953.31
542.269	1952.31
542.722	1934.31
543.175	1953.31
543.629	1960.31
544.082	1991.31
544.536	1970.31
544.989	2061.31
545.442	2012.31
545.895	1994.31
546.349	2038.31
546.802	2028.31
547.255	2054.31
547.708	2061.31
548.161	2070.31
548.614	2108.31
549.067	2076.31
549.52	2072.31
549.973	2060.31
550.426	2038.31
550.879	2040.31
551.332	2040.31
551.785	2011.31
552.238	2052.31
552.691	2046.31
553.144	2076.31
553.596	2124.31
554.049	2175.31
554.502	2161.31
554.955	2273.31
555.407	2295.31
555.86	2258.31
556.313	2238.31
556.765	2169.31
557.218	2183.31
557.67	2190.31
558.123	2195.31
558.576	2139.31
559.028	2174.31
559.48	2125.31
559.933	2134.31
560.385	2060.31
560.838	1967.31
561.29	1958.31
561.742	1926.31
562.195	1894.31
562.647	1907.31
563.099	1879.31
563.551	1909.31
564.004	1905.31
564.456	1879.31
564.908	1852.31
565.36	1809.31
565.812	1777.31
566.264	1738.31
566.716	1713.31
567.168	1684.31
567.62	1745.31
568.072	1711.31
568.524	1692.31
568.976	1651.31
569.428	1631.31
569.88	1609.31
570.332	1688.31
570.784	1603.31
571.235	1651.31
571.687	1649.31
572.139	1656.31
572.59	1693.31
573.042	1689.31
573.494	1675.31
573.945	1690.31
574.397	1638.31
574.849	1665.31
575.3	1646.31
575.752	1613.31
576.203	1587.31
576.655	1613.31
577.106	1597.31
577.557	1599.31
578.009	1521.31
578.46	1580.31
578.912	1588.31
579.363	1562.31
579.814	1557.31
580.265	1576.31
580.717	1557.31
581.168	1578.31
581.619	1578.31
582.07	1579.31
582.521	1563.31
582.972	1550.31
583.423	1592.31
583.875	1631.31
584.326	1604.31
584.777	1656.31
585.227	1674.31
585.678	1657.31
586.129	1710.31
586.58	1730.31
587.031	1761.31
587.482	1816.31
587.933	1810.31
588.384	1832.31
588.834	1784.31
589.285	1798.31
589.736	1806.31
590.186	1787.31
590.637	1772.31
591.088	1732.31
591.538	1702.31
591.989	1681.31
592.439	1639.31
592.89	1624.31
593.34	1621.31
593.791	1604.31
594.241	1586.31
594.692	1580.31
595.142	1623.31
595.593	1602.31
596.043	1593.31
596.493	1614.31
596.943	1594.31
597.394	1650.31
597.844	1713.31
598.294	1720.31
598.744	1802.31
599.195	1878.31
599.645	1945.31
600.095	2098.31
600.545	2151.31
600.995	2240.31
601.445	2372.31
601.895	2502.31
602.345	2590.31
602.795	2610.31
603.245	2452.31
603.695	2313.31
604.145	2241.31
604.594	2081.31
605.044	1960.31
605.494	1821.31
605.944	1724.31
606.393	1688.31
606.843	1628.31
607.293	1652.31
607.743	1646.31
608.192	1634.31
608.642	1667.31
609.091	1629.31
609.541	1656.31
609.99	1636.31
610.44	1618.31
610.889	1587.31
611.339	1594.31
611.788	1568.31
612.238	1591.31
612.687	1599.31
613.136	1568.31
613.586	1558.31
614.035	1585.31
614.484	1587.31
614.933	1584.31
615.383	1523.31
615.832	1521.31
616.281	1498.31
616.73	1506.31
617.179	1455.31
617.628	1411.31
618.077	1398.31
618.526	1360.31
618.975	1361.31
619.424	1331.31
619.873	1370.31
620.322	1350.31
620.771	1312.31
621.22	1339.31
621.669	1293.31
622.118	1268.31
622.567	1266.31
623.015	1230.31
623.464	1251.31
623.913	1200.31
624.361	1230.31
624.81	1182.31
625.259	1236.31
625.707	1202.31
626.156	1242.31
626.604	1245.31
627.053	1229.31
627.501	1280.31
627.95	1238.31
628.398	1281.31
628.847	1288.31
629.295	1246.31
629.744	1240.31
630.192	1232.31
630.64	1209.31
631.089	1170.31
631.537	1126.31
631.985	1145.31
632.433	1148.31
632.881	1114.31
633.33	1118.31
633.778	1114.31
634.226	1142.31
634.674	1153.31
635.122	1118.31
635.57	1154.31
636.018	1195.31
636.466	1162.31
636.914	1154.31
637.362	1180.31
637.81	1193.31
638.258	1256.31
638.705	1275.31
639.153	1286.31
639.601	1325.31
640.049	1307.31
640.497	1368.31
640.944	1410.31
641.392	1376.31
641.84	1232.31
642.287	1140.31
642.735	1098.31
643.182	1128.31
643.63	1102.31
644.078	1088.31
644.525	1064.31
644.973	1107.31
645.42	1095.31
645.867	1125.31
646.315	1105.31
646.762	1136.31
647.21	1073.31
647.657	1126.31
648.104	1113.31
648.551	1086.31
648.999	1060.31
649.446	1027.31
649.893	1016.31
650.34	1064.31
650.787	1038.31
651.234	1128.31
651.682	1185.31
652.129	1256.31
652.576	1449.31
653.023	1686.31
653.47	1833.31
653.917	1898.31
654.363	1955.31
654.81	2009.31
655.257	2142.31
655.704	1824.31
656.151	1374.31
656.598	1196.31
657.044	1086.31
657.491	1076.31
657.938	1051.31
658.385	1012.31
658.831	1015.31
659.278	1045.31
659.724	1020.31
660.171	976.31
660.618	965.31
661.064	946.31
661.511	967.31
661.957	936.31
662.404	940.31
662.85	973.31
663.296	1009.31
663.743	986.31
664.189	941.31
664.635	1010.31
665.082	993.31
665.528	1006.31
665.974	961.31
666.42	936.31
666.867	921.31
667.313	892.31
667.759	909.31
668.205	892.31
668.651	884.31
669.097	900.31
669.543	898.31
669.989	904.31
670.435	926.31
670.881	913.31
671.327	944.31
671.773	1026.31
672.219	1110.31
672.665	1216.31
673.11	1237.31
673.556	1327.31
674.002	1334.31
674.448	1402.31
674.893	1209.31
675.339	1031.31
675.785	951.31
676.23	888.31
676.676	838.31
677.122	870.31
677.567	809.31
678.013	782.31
678.458	795.31
678.904	771.31
679.349	782.31
679.794	762.31
680.24	785.31
680.685	781.31
681.131	782.31
681.576	796.31
682.021	780.31
682.466	766.31
682.912	806.31
683.357	817.31
683.802	856.31
684.247	948.31
684.692	1055.31
685.137	1089.31
685.583	1107.31
686.028	1145.31
686.473	1135.31
686.918	1006.31
687.363	880.31
687.807	848.31
688.252	815.31
688.697	778.31
689.142	738.31
689.587	744.31
690.032	744.31
690.477	771.31
690.921	846.31
691.366	905.31
691.811	894.31
692.255	925.31
692.7	1105.31
693.145	1438.31
693.589	2248.31
694.034	2987.31
694.478	3380.31
694.923	3121.31
695.367	3886.31
695.812	3448.31
696.256	1365.31
696.701	886.31
697.145	772.31
697.59	746.31
698.034	720.31
698.478	698.31
698.922	746.31
699.367	732.31
699.811	762.31
700.255	834.31
700.699	907.31
701.143	1008.31
701.588	1036.31
702.032	1130.31
702.476	1128.31
702.92	1199.31
703.364	1347.31
703.808	2016.31
704.252	2869.31
704.696	3182.31
705.14	3014.31
705.584	3791.31
706.027	3020.31
706.471	1370.31
706.915	922.31
707.359	790.31
707.803	730.31
708.246	718.31
708.69	700.31
709.134	711.31
709.577	678.31
710.021	700.31
710.465	683.31
710.908	686.31
711.352	726.31
711.795	776.31
712.239	807.31
712.682	848.31
713.126	861.31
713.569	938.31
714.012	846.31
714.456	706.31
714.899	650.31
715.342	635.31
715.786	595.31
716.229	616.31
716.672	600.31
717.115	581.31
717.558	573.31
718.002	591.31
718.445	623.31
718.888	638.31
719.331	663.31
719.774	670.31
720.217	685.31
720.66	635.31
721.103	623.31
721.546	595.31
721.989	567.31
722.432	559.31
722.874	564.31
723.317	566.31
723.76	593.31
724.203	653.31
724.645	861.31
725.088	1070.31
725.531	1161.31
725.974	1160.31
726.416	1254.31
726.859	799.31
727.301	589.31
727.744	553.31
728.187	538.31
728.629	557.31
729.071	605.31
729.514	608.31
729.956	638.31
730.399	666.31
730.841	644.31
731.283	660.31
731.726	603.31
732.168	623.31
732.61	624.31
733.053	656.31
733.495	779.31
733.937	811.31
734.379	950.31
734.821	1154.31
735.263	1591.31
735.705	2777.31
736.148	4611.31
736.59	5451.31
737.032	5026.31
737.474	5473.31
737.916	2496.31
738.357	1176.31
738.799	793.31
739.241	744.31
739.683	675.31
740.125	681.31
740.567	696.31
741.008	761.31
741.45	777.31
741.892	800.31
742.334	820.31
742.775	808.31
