Data from 20170802-ORNL-NYSim-Air_HRD10391_10-36-24-598.txt Node
Date: Wed Aug 02 10:36:24 EDT 2017
User: Ender
Spectrometer: HR+D1039
Trigger mode: 0
Integration Time (sec): 3.750000E-3
Scans to average: 1
Electric dark correction enabled: true
Nonlinearity correction enabled: false
Boxcar width: 0
XAxis mode: Wavelengths
Number of Pixels in Spectrum: 2048
>>>>>Begin Spectral Data<<<<<
187.836	7.75
188.309	7.75
188.782	7.75
189.255	-5.25
189.728	-11.25
190.201	-11.25
190.674	-12.25
191.147	-14.25
191.619	-8.25
192.092	-6.25
192.565	-15.25
193.038	-7.25
193.511	5.75
193.984	6.75
194.456	8.75
194.929	20.75
195.402	20.75
195.874	20.75
196.347	16.75
196.82	27.75
197.292	22.75
197.765	25.75
198.237	51.75
198.71	45.75
199.182	31.75
199.655	38.75
200.127	56.75
200.6	62.75
201.072	50.75
201.544	55.75
202.017	72.75
202.489	50.75
202.961	67.75
203.433	70.75
203.906	71.75
204.378	87.75
204.85	72.75
205.322	80.75
205.794	83.75
206.266	84.75
206.739	78.75
207.211	87.75
207.683	79.75
208.155	80.75
208.627	81.75
209.099	86.75
209.57	96.75
210.042	71.75
210.514	81.75
210.986	88.75
211.458	83.75
211.93	82.75
212.402	83.75
212.873	95.75
213.345	97.75
213.817	89.75
214.288	107.75
214.76	99.75
215.232	86.75
215.703	85.75
216.175	82.75
216.646	85.75
217.118	77.75
217.589	77.75
218.061	98.75
218.532	76.75
219.004	90.75
219.475	72.75
219.946	81.75
220.418	88.75
220.889	76.75
221.36	87.75
221.832	76.75
222.303	71.75
222.774	103.75
223.245	98.75
223.717	92.75
224.188	75.75
224.659	70.75
225.13	79.75
225.601	83.75
226.072	79.75
226.543	89.75
227.014	85.75
227.485	71.75
227.956	84.75
228.427	71.75
228.898	91.75
229.369	89.75
229.839	83.75
230.31	95.75
230.781	86.75
231.252	87.75
231.722	75.75
232.193	91.75
232.664	73.75
233.135	103.75
233.605	87.75
234.076	91.75
234.546	88.75
235.017	75.75
235.487	82.75
235.958	72.75
236.428	91.75
236.899	74.75
237.369	74.75
237.84	95.75
238.31	81.75
238.78	94.75
239.251	85.75
239.721	87.75
240.191	99.75
240.662	98.75
241.132	104.75
241.602	102.75
242.072	89.75
242.542	81.75
243.013	96.75
243.483	96.75
243.953	91.75
244.423	81.75
244.893	93.75
245.363	80.75
245.833	100.75
246.303	88.75
246.773	101.75
247.243	107.75
247.712	95.75
248.182	104.75
248.652	100.75
249.122	94.75
249.592	99.75
250.061	87.75
250.531	90.75
251.001	108.75
251.471	105.75
251.94	86.75
252.41	83.75
252.879	93.75
253.349	104.75
253.818	99.75
254.288	89.75
254.757	88.75
255.227	75.75
255.696	99.75
256.166	93.75
256.635	96.75
257.105	97.75
257.574	97.75
258.043	103.75
258.513	97.75
258.982	106.75
259.451	95.75
259.92	102.75
260.389	105.75
260.859	85.75
261.328	105.75
261.797	97.75
262.266	96.75
262.735	92.75
263.204	109.75
263.673	104.75
264.142	97.75
264.611	101.75
265.08	97.75
265.549	119.75
266.018	101.75
266.487	109.75
266.955	107.75
267.424	113.75
267.893	116.75
268.362	91.75
268.83	99.75
269.299	100.75
269.768	104.75
270.236	117.75
270.705	111.75
271.174	112.75
271.642	104.75
272.111	109.75
272.579	111.75
273.048	128.75
273.516	124.75
273.985	103.75
274.453	115.75
274.922	107.75
275.39	104.75
275.858	116.75
276.327	112.75
276.795	105.75
277.263	119.75
277.731	111.75
278.2	109.75
278.668	111.75
279.136	96.75
279.604	130.75
280.072	123.75
280.54	122.75
281.008	102.75
281.477	110.75
281.945	134.75
282.413	129.75
282.881	128.75
283.348	103.75
283.816	120.75
284.284	131.75
284.752	134.75
285.22	125.75
285.688	130.75
286.156	120.75
286.623	116.75
287.091	107.75
287.559	125.75
288.026	115.75
288.494	108.75
288.962	125.75
289.429	113.75
289.897	122.75
290.364	137.75
290.832	113.75
291.3	130.75
291.767	136.75
292.234	139.75
292.702	135.75
293.169	134.75
293.637	146.75
294.104	154.75
294.571	129.75
295.039	125.75
295.506	131.75
295.973	146.75
296.44	143.75
296.908	131.75
297.375	160.75
297.842	126.75
298.309	139.75
298.776	130.75
299.243	145.75
299.71	124.75
300.177	145.75
300.644	157.75
301.111	149.75
301.578	153.75
302.045	139.75
302.512	127.75
302.979	144.75
303.446	148.75
303.913	152.75
304.379	150.75
304.846	143.75
305.313	145.75
305.78	146.75
306.246	147.75
306.713	156.75
307.18	143.75
307.646	176.75
308.113	156.75
308.579	155.75
309.046	156.75
309.512	139.75
309.979	162.75
310.445	170.75
310.912	161.75
311.378	159.75
311.845	171.75
312.311	178.75
312.777	164.75
313.244	151.75
313.71	178.75
314.176	177.75
314.642	161.75
315.109	154.75
315.575	161.75
316.041	169.75
316.507	184.75
316.973	145.75
317.439	169.75
317.905	185.75
318.371	166.75
318.837	195.75
319.303	191.75
319.769	167.75
320.235	189.75
320.701	181.75
321.167	186.75
321.633	177.75
322.099	170.75
322.564	200.75
323.03	181.75
323.496	196.75
323.962	183.75
324.427	176.75
324.893	198.75
325.359	192.75
325.824	199.75
326.29	201.75
326.755	185.75
327.221	193.75
327.686	204.75
328.152	187.75
328.617	188.75
329.083	195.75
329.548	210.75
330.014	185.75
330.479	184.75
330.944	201.75
331.41	206.75
331.875	207.75
332.34	194.75
332.805	216.75
333.271	219.75
333.736	214.75
334.201	229.75
334.666	194.75
335.131	204.75
335.596	209.75
336.061	220.75
336.526	213.75
336.991	234.75
337.456	190.75
337.921	211.75
338.386	208.75
338.851	221.75
339.316	209.75
339.781	206.75
340.246	218.75
340.711	217.75
341.175	231.75
341.64	217.75
342.105	224.75
342.569	222.75
343.034	213.75
343.499	234.75
343.963	256.75
344.428	245.75
344.893	241.75
345.357	245.75
345.822	242.75
346.286	233.75
346.751	219.75
347.215	269.75
347.679	232.75
348.144	264.75
348.608	262.75
349.073	265.75
349.537	272.75
350.001	261.75
350.465	287.75
350.93	276.75
351.394	283.75
351.858	280.75
352.322	275.75
352.786	274.75
353.25	287.75
353.715	277.75
354.179	292.75
354.643	293.75
355.107	317.75
355.571	307.75
356.035	289.75
356.498	303.75
356.962	285.75
357.426	299.75
357.89	285.75
358.354	281.75
358.818	276.75
359.281	293.75
359.745	311.75
360.209	293.75
360.673	303.75
361.136	304.75
361.6	282.75
362.064	315.75
362.527	287.75
362.991	301.75
363.454	289.75
363.918	313.75
364.381	302.75
364.845	306.75
365.308	291.75
365.772	315.75
366.235	315.75
366.698	303.75
367.162	324.75
367.625	309.75
368.088	335.75
368.552	318.75
369.015	317.75
369.478	329.75
369.941	317.75
370.404	328.75
370.867	296.75
371.331	311.75
371.794	343.75
372.257	353.75
372.72	359.75
373.183	339.75
373.646	351.75
374.109	348.75
374.572	343.75
375.035	329.75
375.497	362.75
375.96	332.75
376.423	359.75
376.886	362.75
377.349	367.75
377.811	360.75
378.274	345.75
378.737	356.75
379.199	363.75
379.662	370.75
380.125	362.75
380.587	368.75
381.05	378.75
381.512	383.75
381.975	385.75
382.437	413.75
382.9	394.75
383.362	395.75
383.825	395.75
384.287	383.75
384.75	399.75
385.212	394.75
385.674	411.75
386.136	404.75
386.599	382.75
387.061	419.75
387.523	419.75
387.985	395.75
388.447	396.75
388.91	384.75
389.372	435.75
389.834	421.75
390.296	410.75
390.758	448.75
391.22	437.75
391.682	419.75
392.144	426.75
392.606	408.75
393.068	408.75
393.529	438.75
393.991	460.75
394.453	450.75
394.915	425.75
395.377	443.75
395.838	441.75
396.3	413.75
396.762	413.75
397.224	431.75
397.685	453.75
398.147	420.75
398.608	450.75
399.07	445.75
399.531	453.75
399.993	487.75
400.454	469.75
400.916	457.75
401.377	461.75
401.839	480.75
402.3	477.75
402.762	491.75
403.223	505.75
403.684	538.75
404.145	480.75
404.607	467.75
405.068	485.75
405.529	462.75
405.99	515.75
406.451	470.75
406.913	491.75
407.374	505.75
407.835	487.75
408.296	495.75
408.757	505.75
409.218	509.75
409.679	487.75
410.14	513.75
410.601	548.75
411.062	538.75
411.522	560.75
411.983	569.75
412.444	577.75
412.905	601.75
413.366	609.75
413.826	641.75
414.287	695.75
414.748	823.75
415.208	870.75
415.669	747.75
416.13	681.75
416.59	684.75
417.051	701.75
417.511	717.75
417.972	749.75
418.432	777.75
418.893	900.75
419.353	857.75
419.814	693.75
420.274	609.75
420.734	613.75
421.195	642.75
421.655	585.75
422.115	627.75
422.576	617.75
423.036	620.75
423.496	661.75
423.956	671.75
424.416	677.75
424.876	785.75
425.336	771.75
425.797	742.75
426.257	729.75
426.717	676.75
427.177	643.75
427.637	615.75
428.097	639.75
428.556	643.75
429.016	710.75
429.476	677.75
429.936	639.75
430.396	637.75
430.856	653.75
431.315	634.75
431.775	692.75
432.235	771.75
432.694	770.75
433.154	715.75
433.614	713.75
434.073	695.75
434.533	628.75
434.993	609.75
435.452	651.75
435.912	656.75
436.371	671.75
436.83	677.75
437.29	653.75
437.749	648.75
438.209	667.75
438.668	664.75
439.127	657.75
439.587	669.75
440.046	658.75
440.505	680.75
440.964	698.75
441.424	711.75
441.883	737.75
442.342	695.75
442.801	654.75
443.26	695.75
443.719	669.75
444.178	683.75
444.637	698.75
445.096	684.75
445.555	712.75
446.014	696.75
446.473	719.75
446.932	677.75
447.391	696.75
447.849	729.75
448.308	699.75
448.767	705.75
449.226	712.75
449.685	747.75
450.143	780.75
450.602	759.75
451.061	707.75
451.519	759.75
451.978	701.75
452.436	707.75
452.895	715.75
453.353	729.75
453.812	695.75
454.27	691.75
454.729	721.75
455.187	731.75
455.646	739.75
456.104	724.75
456.562	720.75
457.021	740.75
457.479	719.75
457.937	760.75
458.395	746.75
458.854	743.75
459.312	737.75
459.77	733.75
460.228	766.75
460.686	747.75
461.144	796.75
461.602	762.75
462.06	769.75
462.518	781.75
462.976	763.75
463.434	769.75
463.892	800.75
464.35	794.75
464.808	815.75
465.266	817.75
465.724	832.75
466.181	834.75
466.639	823.75
467.097	848.75
467.555	877.75
468.012	859.75
468.47	899.75
468.928	869.75
469.385	882.75
469.843	920.75
470.3	947.75
470.758	948.75
471.215	958.75
471.673	1035.75
472.13	1010.75
472.588	1012.75
473.045	975.75
473.503	1023.75
473.96	1045.75
474.417	1072.75
474.875	1101.75
475.332	1149.75
475.789	1135.75
476.246	1110.75
476.704	1187.75
477.161	1158.75
477.618	1163.75
478.075	1167.75
478.532	1264.75
478.989	1254.75
479.446	1319.75
479.903	1337.75
480.36	1339.75
480.817	1333.75
481.274	1338.75
481.731	1373.75
482.188	1406.75
482.645	1453.75
483.102	1461.75
483.558	1486.75
484.015	1512.75
484.472	1505.75
484.929	1551.75
485.385	1530.75
485.842	1543.75
486.299	1568.75
486.755	1515.75
487.212	1545.75
487.668	1450.75
488.125	1478.75
488.582	1450.75
489.038	1469.75
489.494	1459.75
489.951	1494.75
490.407	1498.75
490.864	1523.75
491.32	1486.75
491.776	1474.75
492.233	1499.75
492.689	1523.75
493.145	1472.75
493.602	1460.75
494.058	1542.75
494.514	1509.75
494.97	1525.75
495.426	1543.75
495.882	1578.75
496.338	1583.75
496.794	1547.75
497.251	1551.75
497.707	1601.75
498.163	1616.75
498.618	1608.75
499.074	1601.75
499.53	1626.75
499.986	1638.75
500.442	1631.75
500.898	1589.75
501.354	1649.75
501.809	1602.75
502.265	1642.75
502.721	1635.75
503.177	1638.75
503.632	1730.75
504.088	1667.75
504.543	1747.75
504.999	1685.75
505.455	1698.75
505.91	1731.75
506.366	1719.75
506.821	1720.75
507.277	1679.75
507.732	1689.75
508.187	1724.75
508.643	1692.75
509.098	1697.75
509.553	1742.75
510.009	1766.75
510.464	1780.75
510.919	1808.75
511.375	1829.75
511.83	1870.75
512.285	1874.75
512.74	1936.75
513.195	1943.75
513.65	2011.75
514.105	2012.75
514.56	1990.75
515.015	2045.75
515.47	2087.75
515.925	2037.75
516.38	2047.75
516.835	2073.75
517.29	2040.75
517.745	2041.75
518.2	2061.75
518.655	1985.75
519.109	1959.75
519.564	1909.75
520.019	1946.75
520.474	1897.75
520.928	1885.75
521.383	1853.75
521.838	1883.75
522.292	1823.75
522.747	1839.75
523.201	1789.75
523.656	1817.75
524.11	1824.75
524.565	1755.75
525.019	1773.75
525.474	1779.75
525.928	1764.75
526.382	1709.75
526.837	1827.75
527.291	1756.75
527.745	1750.75
528.2	1805.75
528.654	1755.75
529.108	1738.75
529.562	1763.75
530.016	1799.75
530.47	1788.75
530.925	1771.75
531.379	1785.75
531.833	1777.75
532.287	1813.75
532.741	1761.75
533.195	1776.75
533.649	1801.75
534.103	1755.75
534.556	1742.75
535.01	1793.75
535.464	1769.75
535.918	1757.75
536.372	1807.75
536.826	1777.75
537.279	1751.75
537.733	1781.75
538.187	1760.75
538.64	1761.75
539.094	1801.75
539.548	1769.75
540.001	1795.75
540.455	1859.75
540.908	1848.75
541.362	1876.75
541.815	1917.75
542.269	1927.75
542.722	1908.75
543.175	1924.75
543.629	1940.75
544.082	1959.75
544.536	1998.75
544.989	1963.75
545.442	1909.75
545.895	2006.75
546.349	2011.75
546.802	1981.75
547.255	1977.75
547.708	1989.75
548.161	2039.75
548.614	2049.75
549.067	2047.75
549.52	2044.75
549.973	1988.75
550.426	1991.75
550.879	1990.75
551.332	1988.75
551.785	2019.75
552.238	2019.75
552.691	2016.75
553.144	2028.75
553.596	2105.75
554.049	2093.75
554.502	2139.75
554.955	2197.75
555.407	2234.75
555.86	2194.75
556.313	2177.75
556.765	2242.75
557.218	2169.75
557.67	2141.75
558.123	2138.75
558.576	2121.75
559.028	2104.75
559.48	2153.75
559.933	2143.75
560.385	2071.75
560.838	2000.75
561.29	1937.75
561.742	1909.75
562.195	1854.75
562.647	1873.75
563.099	1898.75
563.551	1847.75
564.004	1883.75
564.456	1886.75
564.908	1825.75
565.36	1740.75
565.812	1712.75
566.264	1729.75
566.716	1695.75
567.168	1675.75
567.62	1642.75
568.072	1656.75
568.524	1655.75
568.976	1641.75
569.428	1612.75
569.88	1614.75
570.332	1647.75
570.784	1668.75
571.235	1621.75
571.687	1661.75
572.139	1664.75
572.59	1637.75
573.042	1677.75
573.494	1682.75
573.945	1651.75
574.397	1653.75
574.849	1657.75
575.3	1613.75
575.752	1614.75
576.203	1579.75
576.655	1607.75
577.106	1567.75
577.557	1603.75
578.009	1545.75
578.46	1561.75
578.912	1527.75
579.363	1524.75
579.814	1561.75
580.265	1537.75
580.717	1562.75
581.168	1575.75
581.619	1562.75
582.07	1595.75
582.521	1563.75
582.972	1570.75
583.423	1578.75
583.875	1556.75
584.326	1544.75
584.777	1570.75
585.227	1634.75
585.678	1641.75
586.129	1689.75
586.58	1684.75
587.031	1693.75
587.482	1741.75
587.933	1800.75
588.384	1787.75
588.834	1795.75
589.285	1757.75
589.736	1747.75
590.186	1791.75
590.637	1758.75
591.088	1712.75
591.538	1663.75
591.989	1683.75
592.439	1634.75
592.89	1626.75
593.34	1639.75
593.791	1613.75
594.241	1595.75
594.692	1588.75
595.142	1577.75
595.593	1585.75
596.043	1639.75
596.493	1643.75
596.943	1599.75
597.394	1653.75
597.844	1697.75
598.294	1671.75
598.744	1785.75
599.195	1767.75
599.645	1913.75
600.095	2055.75
600.545	2143.75
600.995	2238.75
601.445	2347.75
601.895	2453.75
602.345	2533.75
602.795	2543.75
603.245	2451.75
603.695	2306.75
604.145	2134.75
604.594	2021.75
605.044	1899.75
605.494	1834.75
605.944	1689.75
606.393	1631.75
606.843	1635.75
607.293	1641.75
607.743	1613.75
608.192	1615.75
608.642	1602.75
609.091	1597.75
609.541	1639.75
609.99	1637.75
610.44	1584.75
610.889	1592.75
611.339	1541.75
611.788	1522.75
612.238	1559.75
612.687	1593.75
613.136	1541.75
613.586	1584.75
614.035	1588.75
614.484	1580.75
614.933	1601.75
615.383	1549.75
615.832	1553.75
616.281	1454.75
616.73	1463.75
617.179	1416.75
617.628	1386.75
618.077	1402.75
618.526	1375.75
618.975	1377.75
619.424	1318.75
619.873	1347.75
620.322	1323.75
620.771	1319.75
621.22	1311.75
621.669	1290.75
622.118	1257.75
622.567	1259.75
623.015	1219.75
623.464	1231.75
623.913	1226.75
624.361	1213.75
624.81	1172.75
625.259	1206.75
625.707	1207.75
626.156	1201.75
626.604	1188.75
627.053	1218.75
627.501	1234.75
627.95	1265.75
628.398	1253.75
628.847	1226.75
629.295	1276.75
629.744	1241.75
630.192	1223.75
630.64	1153.75
631.089	1143.75
631.537	1157.75
631.985	1093.75
632.433	1118.75
632.881	1102.75
633.33	1106.75
633.778	1116.75
634.226	1119.75
634.674	1115.75
635.122	1127.75
635.57	1169.75
636.018	1150.75
636.466	1159.75
636.914	1170.75
637.362	1135.75
637.81	1175.75
638.258	1222.75
638.705	1217.75
639.153	1236.75
639.601	1245.75
640.049	1296.75
640.497	1294.75
640.944	1381.75
641.392	1335.75
641.84	1239.75
642.287	1137.75
642.735	1122.75
643.182	1073.75
643.63	1105.75
644.078	1048.75
644.525	1098.75
644.973	1053.75
645.42	1098.75
645.867	1112.75
646.315	1063.75
646.762	1113.75
647.21	1099.75
647.657	1117.75
648.104	1099.75
648.551	1047.75
648.999	1045.75
649.446	1022.75
649.893	1017.75
650.34	1013.75
650.787	1048.75
651.234	1088.75
651.682	1169.75
652.129	1257.75
652.576	1392.75
653.023	1646.75
653.47	1825.75
653.917	1884.75
654.363	1911.75
654.81	1960.75
655.257	2105.75
655.704	1777.75
656.151	1358.75
656.598	1183.75
657.044	1059.75
657.491	1066.75
657.938	1039.75
658.385	1020.75
658.831	1010.75
659.278	972.75
659.724	1003.75
660.171	966.75
660.618	974.75
661.064	908.75
661.511	949.75
661.957	938.75
662.404	940.75
662.85	989.75
663.296	965.75
663.743	985.75
664.189	957.75
664.635	935.75
665.082	958.75
665.528	962.75
665.974	951.75
666.42	931.75
666.867	931.75
667.313	892.75
667.759	895.75
668.205	842.75
668.651	873.75
669.097	881.75
669.543	883.75
669.989	886.75
670.435	919.75
670.881	910.75
671.327	951.75
671.773	989.75
672.219	1068.75
672.665	1146.75
673.11	1214.75
673.556	1305.75
674.002	1302.75
674.448	1367.75
674.893	1175.75
675.339	1039.75
675.785	905.75
676.23	880.75
676.676	857.75
677.122	807.75
677.567	807.75
678.013	784.75
678.458	757.75
678.904	769.75
679.349	741.75
679.794	744.75
680.24	769.75
680.685	755.75
681.131	752.75
681.576	748.75
682.021	745.75
682.466	763.75
682.912	749.75
683.357	788.75
683.802	837.75
684.247	921.75
684.692	1021.75
685.137	1071.75
685.583	1112.75
686.028	1142.75
686.473	1143.75
686.918	982.75
687.363	874.75
687.807	869.75
688.252	817.75
688.697	774.75
689.142	718.75
689.587	767.75
690.032	724.75
690.477	771.75
690.921	807.75
691.366	835.75
691.811	909.75
692.255	961.75
692.7	1061.75
693.145	1417.75
693.589	2203.75
694.034	2960.75
694.478	3280.75
694.923	2968.75
695.367	3833.75
695.812	3453.75
696.256	1355.75
696.701	871.75
697.145	778.75
697.59	748.75
698.034	706.75
698.478	730.75
698.922	710.75
699.367	739.75
699.811	759.75
700.255	802.75
700.699	903.75
701.143	968.75
701.588	1065.75
702.032	1120.75
702.476	1104.75
702.92	1123.75
703.364	1328.75
703.808	1973.75
704.252	2762.75
704.696	3056.75
705.14	2874.75
705.584	3756.75
706.027	2940.75
706.471	1379.75
706.915	941.75
707.359	791.75
707.803	731.75
708.246	707.75
708.69	704.75
709.134	675.75
709.577	658.75
710.021	701.75
710.465	698.75
710.908	674.75
711.352	699.75
711.795	773.75
712.239	864.75
712.682	866.75
713.126	847.75
713.569	906.75
714.012	861.75
714.456	703.75
714.899	663.75
715.342	660.75
715.786	596.75
716.229	589.75
716.672	566.75
717.115	581.75
717.558	589.75
718.002	602.75
718.445	615.75
718.888	643.75
719.331	663.75
719.774	694.75
720.217	687.75
720.66	628.75
721.103	608.75
721.546	595.75
721.989	552.75
722.432	557.75
722.874	581.75
723.317	566.75
723.76	570.75
724.203	661.75
724.645	858.75
725.088	1103.75
725.531	1175.75
725.974	1120.75
726.416	1211.75
726.859	754.75
727.301	590.75
727.744	541.75
728.187	549.75
728.629	560.75
729.071	577.75
729.514	593.75
729.956	616.75
730.399	618.75
730.841	648.75
731.283	629.75
731.726	623.75
732.168	629.75
732.61	646.75
733.053	668.75
733.495	753.75
733.937	819.75
734.379	942.75
734.821	1093.75
735.263	1579.75
735.705	2670.75
736.148	4553.75
736.59	5247.75
737.032	4970.75
737.474	5290.75
737.916	2480.75
738.357	1152.75
738.799	813.75
739.241	689.75
739.683	671.75
740.125	718.75
740.567	725.75
741.008	720.75
741.45	773.75
741.892	789.75
742.334	830.75
742.775	783.75
