Data from 20170802-ORNL-NYSim-Air_HRD10391_10-36-28-603.txt Node
Date: Wed Aug 02 10:36:28 EDT 2017
User: Ender
Spectrometer: HR+D1039
Trigger mode: 0
Integration Time (sec): 3.750000E-3
Scans to average: 1
Electric dark correction enabled: true
Nonlinearity correction enabled: false
Boxcar width: 0
XAxis mode: Wavelengths
Number of Pixels in Spectrum: 2048
>>>>>Begin Spectral Data<<<<<
187.836	-12.88
188.309	-12.88
188.782	-12.88
189.255	6.12
189.728	-11.88
190.201	1.12
190.674	-12.88
191.147	-11.88
191.619	-20.88
192.092	-21.88
192.565	6.12
193.038	9.12
193.511	6.12
193.984	9.12
194.456	-9.88
194.929	13.12
195.402	16.12
195.874	35.12
196.347	16.12
196.82	18.12
197.292	16.12
197.765	44.12
198.237	24.12
198.71	55.12
199.182	57.12
199.655	59.12
200.127	71.12
200.6	42.12
201.072	52.12
201.544	57.12
202.017	71.12
202.489	70.12
202.961	99.12
203.433	77.12
203.906	77.12
204.378	85.12
204.85	76.12
205.322	82.12
205.794	82.12
206.266	97.12
206.739	85.12
207.211	55.12
207.683	88.12
208.155	64.12
208.627	73.12
209.099	91.12
209.57	98.12
210.042	68.12
210.514	80.12
210.986	84.12
211.458	87.12
211.93	94.12
212.402	93.12
212.873	88.12
213.345	84.12
213.817	75.12
214.288	94.12
214.76	85.12
215.232	92.12
215.703	72.12
216.175	89.12
216.646	74.12
217.118	87.12
217.589	85.12
218.061	78.12
218.532	83.12
219.004	73.12
219.475	73.12
219.946	78.12
220.418	81.12
220.889	65.12
221.36	88.12
221.832	79.12
222.303	76.12
222.774	78.12
223.245	83.12
223.717	68.12
224.188	78.12
224.659	82.12
225.13	77.12
225.601	71.12
226.072	73.12
226.543	96.12
227.014	93.12
227.485	97.12
227.956	93.12
228.427	83.12
228.898	75.12
229.369	85.12
229.839	76.12
230.31	82.12
230.781	62.12
231.252	87.12
231.722	89.12
232.193	79.12
232.664	91.12
233.135	78.12
233.605	92.12
234.076	62.12
234.546	93.12
235.017	101.12
235.487	87.12
235.958	91.12
236.428	79.12
236.899	85.12
237.369	75.12
237.84	91.12
238.31	86.12
238.78	93.12
239.251	84.12
239.721	94.12
240.191	87.12
240.662	91.12
241.132	83.12
241.602	89.12
242.072	97.12
242.542	82.12
243.013	93.12
243.483	89.12
243.953	87.12
244.423	96.12
244.893	92.12
245.363	100.12
245.833	73.12
246.303	75.12
246.773	96.12
247.243	97.12
247.712	77.12
248.182	95.12
248.652	119.12
249.122	84.12
249.592	91.12
250.061	103.12
250.531	98.12
251.001	101.12
251.471	91.12
251.94	96.12
252.41	94.12
252.879	98.12
253.349	89.12
253.818	101.12
254.288	106.12
254.757	98.12
255.227	102.12
255.696	86.12
256.166	106.12
256.635	98.12
257.105	92.12
257.574	90.12
258.043	96.12
258.513	102.12
258.982	105.12
259.451	106.12
259.92	89.12
260.389	109.12
260.859	97.12
261.328	108.12
261.797	89.12
262.266	102.12
262.735	107.12
263.204	107.12
263.673	119.12
264.142	113.12
264.611	99.12
265.08	106.12
265.549	109.12
266.018	105.12
266.487	121.12
266.955	106.12
267.424	107.12
267.893	116.12
268.362	95.12
268.83	119.12
269.299	97.12
269.768	113.12
270.236	108.12
270.705	112.12
271.174	101.12
271.642	105.12
272.111	112.12
272.579	122.12
273.048	104.12
273.516	119.12
273.985	119.12
274.453	108.12
274.922	122.12
275.39	110.12
275.858	131.12
276.327	135.12
276.795	124.12
277.263	133.12
277.731	112.12
278.2	118.12
278.668	110.12
279.136	113.12
279.604	126.12
280.072	115.12
280.54	103.12
281.008	123.12
281.477	114.12
281.945	126.12
282.413	126.12
282.881	128.12
283.348	133.12
283.816	115.12
284.284	124.12
284.752	115.12
285.22	119.12
285.688	127.12
286.156	132.12
286.623	130.12
287.091	148.12
287.559	142.12
288.026	125.12
288.494	120.12
288.962	128.12
289.429	126.12
289.897	132.12
290.364	122.12
290.832	137.12
291.3	140.12
291.767	151.12
292.234	109.12
292.702	145.12
293.169	121.12
293.637	143.12
294.104	121.12
294.571	133.12
295.039	125.12
295.506	136.12
295.973	143.12
296.44	151.12
296.908	162.12
297.375	143.12
297.842	131.12
298.309	128.12
298.776	139.12
299.243	142.12
299.71	134.12
300.177	146.12
300.644	150.12
301.111	133.12
301.578	147.12
302.045	149.12
302.512	148.12
302.979	159.12
303.446	129.12
303.913	132.12
304.379	150.12
304.846	153.12
305.313	177.12
305.78	166.12
306.246	131.12
306.713	149.12
307.18	152.12
307.646	169.12
308.113	163.12
308.579	158.12
309.046	146.12
309.512	162.12
309.979	150.12
310.445	145.12
310.912	154.12
311.378	166.12
311.845	177.12
312.311	169.12
312.777	157.12
313.244	164.12
313.71	146.12
314.176	162.12
314.642	173.12
315.109	181.12
315.575	169.12
316.041	178.12
316.507	170.12
316.973	178.12
317.439	189.12
317.905	171.12
318.371	158.12
318.837	173.12
319.303	192.12
319.769	186.12
320.235	199.12
320.701	197.12
321.167	185.12
321.633	177.12
322.099	163.12
322.564	186.12
323.03	175.12
323.496	186.12
323.962	202.12
324.427	189.12
324.893	190.12
325.359	190.12
325.824	190.12
326.29	198.12
326.755	180.12
327.221	214.12
327.686	201.12
328.152	199.12
328.617	191.12
329.083	195.12
329.548	197.12
330.014	203.12
330.479	199.12
330.944	214.12
331.41	189.12
331.875	197.12
332.34	217.12
332.805	208.12
333.271	225.12
333.736	209.12
334.201	225.12
334.666	230.12
335.131	195.12
335.596	204.12
336.061	210.12
336.526	210.12
336.991	217.12
337.456	223.12
337.921	221.12
338.386	208.12
338.851	216.12
339.316	199.12
339.781	223.12
340.246	198.12
340.711	222.12
341.175	224.12
341.64	214.12
342.105	221.12
342.569	238.12
343.034	231.12
343.499	231.12
343.963	243.12
344.428	251.12
344.893	243.12
345.357	234.12
345.822	249.12
346.286	247.12
346.751	271.12
347.215	249.12
347.679	253.12
348.144	289.12
348.608	245.12
349.073	252.12
349.537	278.12
350.001	257.12
350.465	265.12
350.93	259.12
351.394	278.12
351.858	268.12
352.322	274.12
352.786	255.12
353.25	271.12
353.715	283.12
354.179	286.12
354.643	308.12
355.107	300.12
355.571	300.12
356.035	299.12
356.498	282.12
356.962	281.12
357.426	289.12
357.89	293.12
358.354	297.12
358.818	271.12
359.281	280.12
359.745	294.12
360.209	294.12
360.673	270.12
361.136	281.12
361.6	280.12
362.064	297.12
362.527	299.12
362.991	303.12
363.454	303.12
363.918	315.12
364.381	324.12
364.845	321.12
365.308	307.12
365.772	296.12
366.235	294.12
366.698	313.12
367.162	320.12
367.625	297.12
368.088	307.12
368.552	329.12
369.015	297.12
369.478	314.12
369.941	313.12
370.404	316.12
370.867	325.12
371.331	317.12
371.794	311.12
372.257	320.12
372.72	344.12
373.183	319.12
373.646	355.12
374.109	326.12
374.572	342.12
375.035	335.12
375.497	339.12
375.96	362.12
376.423	320.12
376.886	355.12
377.349	382.12
377.811	363.12
378.274	377.12
378.737	372.12
379.199	367.12
379.662	359.12
380.125	362.12
380.587	393.12
381.05	389.12
381.512	376.12
381.975	369.12
382.437	375.12
382.9	383.12
383.362	389.12
383.825	383.12
384.287	394.12
384.75	414.12
385.212	389.12
385.674	392.12
386.136	399.12
386.599	396.12
387.061	401.12
387.523	391.12
387.985	398.12
388.447	411.12
388.91	399.12
389.372	413.12
389.834	436.12
390.296	413.12
390.758	428.12
391.22	425.12
391.682	417.12
392.144	419.12
392.606	421.12
393.068	439.12
393.529	437.12
393.991	472.12
394.453	427.12
394.915	433.12
395.377	442.12
395.838	424.12
396.3	431.12
396.762	435.12
397.224	431.12
397.685	436.12
398.147	451.12
398.608	451.12
399.07	459.12
399.531	438.12
399.993	487.12
400.454	468.12
400.916	454.12
401.377	478.12
401.839	473.12
402.3	479.12
402.762	494.12
403.223	523.12
403.684	527.12
404.145	488.12
404.607	480.12
405.068	469.12
405.529	490.12
405.99	489.12
406.451	491.12
406.913	486.12
407.374	470.12
407.835	471.12
408.296	496.12
408.757	478.12
409.218	494.12
409.679	537.12
410.14	520.12
410.601	561.12
411.062	563.12
411.522	576.12
411.983	543.12
412.444	561.12
412.905	612.12
413.366	608.12
413.826	623.12
414.287	691.12
414.748	840.12
415.208	870.12
415.669	714.12
416.13	660.12
416.59	634.12
417.051	685.12
417.511	698.12
417.972	753.12
418.432	801.12
418.893	893.12
419.353	865.12
419.814	641.12
420.274	604.12
420.734	628.12
421.195	605.12
421.655	584.12
422.115	607.12
422.576	614.12
423.036	619.12
423.496	622.12
423.956	650.12
424.416	692.12
424.876	751.12
425.336	792.12
425.797	753.12
426.257	734.12
426.717	697.12
427.177	617.12
427.637	614.12
428.097	634.12
428.556	656.12
429.016	698.12
429.476	668.12
429.936	660.12
430.396	669.12
430.856	643.12
431.315	627.12
431.775	689.12
432.235	768.12
432.694	788.12
433.154	722.12
433.614	691.12
434.073	651.12
434.533	622.12
434.993	665.12
435.452	665.12
435.912	640.12
436.371	659.12
436.83	647.12
437.29	623.12
437.749	633.12
438.209	672.12
438.668	654.12
439.127	665.12
439.587	667.12
440.046	651.12
440.505	651.12
440.964	669.12
441.424	689.12
441.883	708.12
442.342	683.12
442.801	661.12
443.26	673.12
443.719	671.12
444.178	673.12
444.637	665.12
445.096	675.12
445.555	691.12
446.014	704.12
446.473	690.12
446.932	693.12
447.391	710.12
447.849	741.12
448.308	693.12
448.767	728.12
449.226	714.12
449.685	757.12
450.143	774.12
450.602	765.12
451.061	735.12
451.519	703.12
451.978	719.12
452.436	713.12
452.895	745.12
453.353	734.12
453.812	713.12
454.27	728.12
454.729	722.12
455.187	719.12
455.646	721.12
456.104	749.12
456.562	707.12
457.021	744.12
457.479	719.12
457.937	701.12
458.395	749.12
458.854	756.12
459.312	762.12
459.77	767.12
460.228	759.12
460.686	796.12
461.144	754.12
461.602	750.12
462.06	753.12
462.518	773.12
462.976	757.12
463.434	793.12
463.892	767.12
464.35	774.12
464.808	811.12
465.266	828.12
465.724	821.12
466.181	823.12
466.639	837.12
467.097	857.12
467.555	897.12
468.012	876.12
468.47	897.12
468.928	911.12
469.385	939.12
469.843	923.12
470.3	915.12
470.758	972.12
471.215	965.12
471.673	968.12
472.13	1013.12
472.588	1007.12
473.045	1003.12
473.503	986.12
473.96	1068.12
474.417	1081.12
474.875	1088.12
475.332	1155.12
475.789	1152.12
476.246	1153.12
476.704	1177.12
477.161	1166.12
477.618	1193.12
478.075	1227.12
478.532	1233.12
478.989	1265.12
479.446	1311.12
479.903	1316.12
480.36	1305.12
480.817	1313.12
481.274	1325.12
481.731	1399.12
482.188	1441.12
482.645	1456.12
483.102	1469.12
483.558	1544.12
484.015	1552.12
484.472	1554.12
484.929	1536.12
485.385	1553.12
485.842	1539.12
486.299	1599.12
486.755	1563.12
487.212	1536.12
487.668	1521.12
488.125	1460.12
488.582	1427.12
489.038	1431.12
489.494	1503.12
489.951	1509.12
490.407	1461.12
490.864	1494.12
491.32	1476.12
491.776	1492.12
492.233	1524.12
492.689	1545.12
493.145	1488.12
493.602	1517.12
494.058	1546.12
494.514	1551.12
494.97	1565.12
495.426	1536.12
495.882	1596.12
496.338	1606.12
496.794	1630.12
497.251	1573.12
497.707	1641.12
498.163	1645.12
498.618	1589.12
499.074	1614.12
499.53	1622.12
499.986	1674.12
500.442	1633.12
500.898	1640.12
501.354	1638.12
501.809	1677.12
502.265	1679.12
502.721	1660.12
503.177	1647.12
503.632	1671.12
504.088	1685.12
504.543	1657.12
504.999	1721.12
505.455	1721.12
505.91	1731.12
506.366	1708.12
506.821	1711.12
507.277	1729.12
507.732	1717.12
508.187	1711.12
508.643	1729.12
509.098	1702.12
509.553	1777.12
510.009	1790.12
510.464	1783.12
510.919	1785.12
511.375	1852.12
511.83	1886.12
512.285	1885.12
512.74	1913.12
513.195	1969.12
513.65	2034.12
514.105	1971.12
514.56	2024.12
515.015	2066.12
515.47	2099.12
515.925	2108.12
516.38	2101.12
516.835	2039.12
517.29	2049.12
517.745	2048.12
518.2	1981.12
518.655	1967.12
519.109	1963.12
519.564	1949.12
520.019	1927.12
520.474	1900.12
520.928	1893.12
521.383	1860.12
521.838	1871.12
522.292	1853.12
522.747	1861.12
523.201	1860.12
523.656	1821.12
524.11	1834.12
524.565	1844.12
525.019	1846.12
525.474	1746.12
525.928	1793.12
526.382	1811.12
526.837	1808.12
527.291	1833.12
527.745	1798.12
528.2	1747.12
528.654	1791.12
529.108	1801.12
529.562	1800.12
530.016	1783.12
530.47	1799.12
530.925	1776.12
531.379	1771.12
531.833	1850.12
532.287	1763.12
532.741	1806.12
533.195	1832.12
533.649	1801.12
534.103	1850.12
534.556	1799.12
535.01	1774.12
535.464	1786.12
535.918	1799.12
536.372	1798.12
536.826	1815.12
537.279	1764.12
537.733	1801.12
538.187	1811.12
538.64	1822.12
539.094	1791.12
539.548	1836.12
540.001	1835.12
540.455	1826.12
540.908	1871.12
541.362	1873.12
541.815	1931.12
542.269	1848.12
542.722	1897.12
543.175	1977.12
543.629	1972.12
544.082	2007.12
544.536	2001.12
544.989	1985.12
545.442	1986.12
545.895	2043.12
546.349	2030.12
546.802	1961.12
547.255	2035.12
547.708	2056.12
548.161	2085.12
548.614	2081.12
549.067	2095.12
549.52	2094.12
549.973	2025.12
550.426	2041.12
550.879	2010.12
551.332	2029.12
551.785	2025.12
552.238	2047.12
552.691	1995.12
553.144	2096.12
553.596	2064.12
554.049	2116.12
554.502	2208.12
554.955	2233.12
555.407	2289.12
555.86	2261.12
556.313	2212.12
556.765	2192.12
557.218	2178.12
557.67	2210.12
558.123	2145.12
558.576	2111.12
559.028	2127.12
559.48	2169.12
559.933	2135.12
560.385	2074.12
560.838	2038.12
561.29	1938.12
561.742	1907.12
562.195	1894.12
562.647	1857.12
563.099	1862.12
563.551	1839.12
564.004	1890.12
564.456	1902.12
564.908	1855.12
565.36	1817.12
565.812	1693.12
566.264	1710.12
566.716	1709.12
567.168	1687.12
567.62	1721.12
568.072	1673.12
568.524	1652.12
568.976	1677.12
569.428	1662.12
569.88	1645.12
570.332	1629.12
570.784	1670.12
571.235	1646.12
571.687	1683.12
572.139	1692.12
572.59	1681.12
573.042	1701.12
573.494	1701.12
573.945	1666.12
574.397	1649.12
574.849	1676.12
575.3	1654.12
575.752	1630.12
576.203	1600.12
576.655	1585.12
577.106	1650.12
577.557	1561.12
578.009	1556.12
578.46	1579.12
578.912	1549.12
579.363	1525.12
579.814	1563.12
580.265	1599.12
580.717	1592.12
581.168	1550.12
581.619	1586.12
582.07	1619.12
582.521	1595.12
582.972	1560.12
583.423	1609.12
583.875	1591.12
584.326	1599.12
584.777	1663.12
585.227	1639.12
585.678	1684.12
586.129	1695.12
586.58	1710.12
587.031	1745.12
587.482	1783.12
587.933	1765.12
588.384	1764.12
588.834	1804.12
589.285	1771.12
589.736	1771.12
590.186	1754.12
590.637	1754.12
591.088	1723.12
591.538	1683.12
591.989	1653.12
592.439	1631.12
592.89	1594.12
593.34	1623.12
593.791	1641.12
594.241	1615.12
594.692	1592.12
595.142	1592.12
595.593	1608.12
596.043	1614.12
596.493	1638.12
596.943	1592.12
597.394	1607.12
597.844	1640.12
598.294	1687.12
598.744	1757.12
599.195	1857.12
599.645	1936.12
600.095	2043.12
600.545	2169.12
600.995	2215.12
601.445	2336.12
601.895	2479.12
602.345	2581.12
602.795	2587.12
603.245	2388.12
603.695	2302.12
604.145	2161.12
604.594	2067.12
605.044	1929.12
605.494	1800.12
605.944	1688.12
606.393	1684.12
606.843	1617.12
607.293	1667.12
607.743	1630.12
608.192	1645.12
608.642	1627.12
609.091	1643.12
609.541	1659.12
609.99	1623.12
610.44	1604.12
610.889	1613.12
611.339	1584.12
611.788	1513.12
612.238	1568.12
612.687	1592.12
613.136	1567.12
613.586	1573.12
614.035	1585.12
614.484	1583.12
614.933	1609.12
615.383	1546.12
615.832	1522.12
616.281	1529.12
616.73	1463.12
617.179	1450.12
617.628	1408.12
618.077	1437.12
618.526	1378.12
618.975	1378.12
619.424	1361.12
619.873	1341.12
620.322	1327.12
620.771	1375.12
621.22	1325.12
621.669	1304.12
622.118	1288.12
622.567	1249.12
623.015	1253.12
623.464	1252.12
623.913	1205.12
624.361	1209.12
624.81	1203.12
625.259	1236.12
625.707	1198.12
626.156	1221.12
626.604	1254.12
627.053	1220.12
627.501	1236.12
627.95	1231.12
628.398	1237.12
628.847	1285.12
629.295	1264.12
629.744	1264.12
630.192	1191.12
630.64	1231.12
631.089	1167.12
631.537	1146.12
631.985	1136.12
632.433	1128.12
632.881	1145.12
633.33	1127.12
633.778	1090.12
634.226	1127.12
634.674	1120.12
635.122	1126.12
635.57	1179.12
636.018	1172.12
636.466	1160.12
636.914	1137.12
637.362	1190.12
637.81	1189.12
638.258	1230.12
638.705	1276.12
639.153	1277.12
639.601	1331.12
640.049	1327.12
640.497	1361.12
640.944	1431.12
641.392	1301.12
641.84	1255.12
642.287	1191.12
642.735	1143.12
643.182	1140.12
643.63	1127.12
644.078	1079.12
644.525	1082.12
644.973	1104.12
645.42	1089.12
645.867	1080.12
646.315	1090.12
646.762	1089.12
647.21	1096.12
647.657	1135.12
648.104	1101.12
648.551	1087.12
648.999	1043.12
649.446	1026.12
649.893	1040.12
650.34	1042.12
650.787	1061.12
651.234	1128.12
651.682	1186.12
652.129	1287.12
652.576	1429.12
653.023	1659.12
653.47	1807.12
653.917	1937.12
654.363	1927.12
654.81	2014.12
655.257	2107.12
655.704	1787.12
656.151	1367.12
656.598	1179.12
657.044	1066.12
657.491	1072.12
657.938	1035.12
658.385	1003.12
658.831	1016.12
659.278	1017.12
659.724	989.12
660.171	998.12
660.618	963.12
661.064	947.12
661.511	959.12
661.957	945.12
662.404	914.12
662.85	970.12
663.296	980.12
663.743	981.12
664.189	967.12
664.635	975.12
665.082	1004.12
665.528	975.12
665.974	980.12
666.42	960.12
666.867	944.12
667.313	912.12
667.759	906.12
668.205	886.12
668.651	914.12
669.097	877.12
669.543	931.12
669.989	891.12
670.435	911.12
670.881	914.12
671.327	957.12
671.773	1003.12
672.219	1084.12
672.665	1192.12
673.11	1239.12
673.556	1289.12
674.002	1308.12
674.448	1370.12
674.893	1185.12
675.339	1037.12
675.785	911.12
676.23	874.12
676.676	874.12
677.122	847.12
677.567	797.12
678.013	774.12
678.458	767.12
678.904	793.12
679.349	780.12
679.794	788.12
680.24	776.12
680.685	765.12
681.131	773.12
681.576	750.12
682.021	737.12
682.466	758.12
682.912	791.12
683.357	810.12
683.802	855.12
684.247	951.12
684.692	1022.12
685.137	1083.12
685.583	1081.12
686.028	1158.12
686.473	1159.12
686.918	976.12
687.363	890.12
687.807	867.12
688.252	820.12
688.697	773.12
689.142	741.12
689.587	751.12
690.032	738.12
690.477	791.12
690.921	839.12
691.366	875.12
691.811	864.12
692.255	952.12
692.7	1081.12
693.145	1430.12
693.589	2224.12
694.034	3017.12
694.478	3313.12
694.923	3091.12
695.367	3860.12
695.812	3415.12
696.256	1355.12
696.701	892.12
697.145	799.12
697.59	765.12
698.034	714.12
698.478	714.12
698.922	719.12
699.367	751.12
699.811	789.12
700.255	853.12
700.699	919.12
701.143	1005.12
701.588	1075.12
702.032	1116.12
702.476	1152.12
702.92	1155.12
703.364	1324.12
703.808	2010.12
704.252	2815.12
704.696	3151.12
705.14	2927.12
705.584	3725.12
706.027	2976.12
706.471	1371.12
706.915	949.12
707.359	793.12
707.803	756.12
708.246	704.12
708.69	720.12
709.134	712.12
709.577	671.12
710.021	691.12
710.465	713.12
710.908	677.12
711.352	703.12
711.795	756.12
712.239	873.12
712.682	859.12
713.126	857.12
713.569	945.12
714.012	838.12
714.456	727.12
714.899	665.12
715.342	628.12
715.786	614.12
716.229	609.12
716.672	585.12
717.115	578.12
717.558	601.12
718.002	615.12
718.445	623.12
718.888	630.12
719.331	686.12
719.774	659.12
720.217	668.12
720.66	678.12
721.103	601.12
721.546	574.12
721.989	527.12
722.432	556.12
722.874	574.12
723.317	543.12
723.76	581.12
724.203	666.12
724.645	900.12
725.088	1084.12
725.531	1173.12
725.974	1140.12
726.416	1271.12
726.859	775.12
727.301	592.12
727.744	576.12
728.187	555.12
728.629	565.12
729.071	579.12
729.514	630.12
729.956	623.12
730.399	636.12
730.841	625.12
731.283	631.12
731.726	609.12
732.168	626.12
732.61	666.12
733.053	710.12
733.495	728.12
733.937	840.12
734.379	944.12
734.821	1100.12
735.263	1582.12
735.705	2725.12
736.148	4657.12
736.59	5400.12
737.032	4990.12
737.474	5441.12
737.916	2551.12
738.357	1200.12
738.799	769.12
739.241	706.12
739.683	693.12
740.125	724.12
740.567	709.12
741.008	715.12
741.45	766.12
741.892	823.12
742.334	796.12
742.775	828.12
