Data from 20170802-ORNL-NYSim-Air_HRD10391_10-36-16-582.txt Node
Date: Wed Aug 02 10:36:16 EDT 2017
User: Ender
Spectrometer: HR+D1039
Trigger mode: 0
Integration Time (sec): 3.750000E-3
Scans to average: 1
Electric dark correction enabled: true
Nonlinearity correction enabled: false
Boxcar width: 0
XAxis mode: Wavelengths
Number of Pixels in Spectrum: 2048
>>>>>Begin Spectral Data<<<<<
187.836	1.44
188.309	1.44
188.782	1.44
189.255	2.44
189.728	-4.56
190.201	-22.56
190.674	-14.56
191.147	-13.56
191.619	-14.56
192.092	7.44
192.565	9.44
193.038	-5.56
193.511	6.44
193.984	0.44
194.456	16.44
194.929	3.44
195.402	13.44
195.874	14.44
196.347	32.44
196.82	21.44
197.292	28.44
197.765	36.44
198.237	27.44
198.71	39.44
199.182	52.44
199.655	50.44
200.127	64.44
200.6	53.44
201.072	50.44
201.544	78.44
202.017	72.44
202.489	81.44
202.961	69.44
203.433	64.44
203.906	77.44
204.378	82.44
204.85	85.44
205.322	73.44
205.794	92.44
206.266	79.44
206.739	85.44
207.211	93.44
207.683	79.44
208.155	85.44
208.627	77.44
209.099	79.44
209.57	97.44
210.042	85.44
210.514	86.44
210.986	81.44
211.458	85.44
211.93	96.44
212.402	96.44
212.873	76.44
213.345	77.44
213.817	78.44
214.288	91.44
214.76	78.44
215.232	73.44
215.703	89.44
216.175	93.44
216.646	84.44
217.118	85.44
217.589	80.44
218.061	74.44
218.532	77.44
219.004	76.44
219.475	73.44
219.946	67.44
220.418	77.44
220.889	67.44
221.36	79.44
221.832	74.44
222.303	87.44
222.774	68.44
223.245	81.44
223.717	70.44
224.188	73.44
224.659	84.44
225.13	77.44
225.601	70.44
226.072	71.44
226.543	85.44
227.014	95.44
227.485	93.44
227.956	87.44
228.427	95.44
228.898	88.44
229.369	75.44
229.839	80.44
230.31	81.44
230.781	91.44
231.252	83.44
231.722	82.44
232.193	80.44
232.664	76.44
233.135	84.44
233.605	89.44
234.076	82.44
234.546	80.44
235.017	110.44
235.487	74.44
235.958	81.44
236.428	72.44
236.899	105.44
237.369	71.44
237.84	93.44
238.31	83.44
238.78	98.44
239.251	69.44
239.721	91.44
240.191	83.44
240.662	96.44
241.132	73.44
241.602	102.44
242.072	97.44
242.542	83.44
243.013	77.44
243.483	92.44
243.953	81.44
244.423	75.44
244.893	80.44
245.363	79.44
245.833	90.44
246.303	103.44
246.773	73.44
247.243	96.44
247.712	99.44
248.182	81.44
248.652	87.44
249.122	96.44
249.592	88.44
250.061	101.44
250.531	106.44
251.001	84.44
251.471	95.44
251.94	84.44
252.41	88.44
252.879	95.44
253.349	104.44
253.818	91.44
254.288	106.44
254.757	84.44
255.227	110.44
255.696	111.44
256.166	99.44
256.635	82.44
257.105	72.44
257.574	91.44
258.043	97.44
258.513	114.44
258.982	122.44
259.451	91.44
259.92	110.44
260.389	101.44
260.859	104.44
261.328	110.44
261.797	96.44
262.266	108.44
262.735	121.44
263.204	107.44
263.673	104.44
264.142	116.44
264.611	97.44
265.08	95.44
265.549	101.44
266.018	101.44
266.487	103.44
266.955	99.44
267.424	98.44
267.893	117.44
268.362	104.44
268.83	89.44
269.299	109.44
269.768	103.44
270.236	120.44
270.705	99.44
271.174	95.44
271.642	105.44
272.111	127.44
272.579	123.44
273.048	92.44
273.516	103.44
273.985	111.44
274.453	111.44
274.922	103.44
275.39	109.44
275.858	105.44
276.327	101.44
276.795	113.44
277.263	109.44
277.731	109.44
278.2	107.44
278.668	103.44
279.136	114.44
279.604	107.44
280.072	121.44
280.54	115.44
281.008	129.44
281.477	105.44
281.945	125.44
282.413	125.44
282.881	106.44
283.348	135.44
283.816	130.44
284.284	114.44
284.752	112.44
285.22	135.44
285.688	123.44
286.156	134.44
286.623	108.44
287.091	127.44
287.559	113.44
288.026	123.44
288.494	132.44
288.962	133.44
289.429	113.44
289.897	133.44
290.364	123.44
290.832	133.44
291.3	108.44
291.767	123.44
292.234	111.44
292.702	133.44
293.169	147.44
293.637	134.44
294.104	139.44
294.571	152.44
295.039	123.44
295.506	114.44
295.973	139.44
296.44	153.44
296.908	134.44
297.375	133.44
297.842	129.44
298.309	129.44
298.776	136.44
299.243	146.44
299.71	136.44
300.177	150.44
300.644	142.44
301.111	118.44
301.578	133.44
302.045	129.44
302.512	133.44
302.979	146.44
303.446	132.44
303.913	139.44
304.379	135.44
304.846	153.44
305.313	152.44
305.78	160.44
306.246	146.44
306.713	152.44
307.18	139.44
307.646	165.44
308.113	144.44
308.579	153.44
309.046	148.44
309.512	147.44
309.979	161.44
310.445	158.44
310.912	158.44
311.378	163.44
311.845	174.44
312.311	165.44
312.777	172.44
313.244	160.44
313.71	152.44
314.176	174.44
314.642	172.44
315.109	184.44
315.575	171.44
316.041	168.44
316.507	179.44
316.973	185.44
317.439	169.44
317.905	166.44
318.371	187.44
318.837	186.44
319.303	181.44
319.769	164.44
320.235	170.44
320.701	152.44
321.167	153.44
321.633	177.44
322.099	170.44
322.564	178.44
323.03	175.44
323.496	185.44
323.962	184.44
324.427	197.44
324.893	176.44
325.359	191.44
325.824	185.44
326.29	193.44
326.755	192.44
327.221	197.44
327.686	181.44
328.152	210.44
328.617	199.44
329.083	196.44
329.548	179.44
330.014	193.44
330.479	205.44
330.944	188.44
331.41	204.44
331.875	194.44
332.34	216.44
332.805	200.44
333.271	212.44
333.736	203.44
334.201	219.44
334.666	221.44
335.131	218.44
335.596	205.44
336.061	183.44
336.526	198.44
336.991	198.44
337.456	202.44
337.921	213.44
338.386	219.44
338.851	225.44
339.316	205.44
339.781	189.44
340.246	195.44
340.711	219.44
341.175	219.44
341.64	204.44
342.105	234.44
342.569	214.44
343.034	236.44
343.499	211.44
343.963	222.44
344.428	249.44
344.893	222.44
345.357	234.44
345.822	217.44
346.286	246.44
346.751	237.44
347.215	253.44
347.679	255.44
348.144	247.44
348.608	260.44
349.073	251.44
349.537	267.44
350.001	276.44
350.465	266.44
350.93	274.44
351.394	265.44
351.858	267.44
352.322	275.44
352.786	261.44
353.25	264.44
353.715	276.44
354.179	294.44
354.643	313.44
355.107	319.44
355.571	278.44
356.035	301.44
356.498	276.44
356.962	294.44
357.426	293.44
357.89	297.44
358.354	270.44
358.818	302.44
359.281	285.44
359.745	281.44
360.209	292.44
360.673	291.44
361.136	279.44
361.6	292.44
362.064	279.44
362.527	312.44
362.991	315.44
363.454	315.44
363.918	306.44
364.381	310.44
364.845	307.44
365.308	312.44
365.772	300.44
366.235	318.44
366.698	293.44
367.162	291.44
367.625	308.44
368.088	328.44
368.552	319.44
369.015	312.44
369.478	335.44
369.941	321.44
370.404	326.44
370.867	313.44
371.331	329.44
371.794	328.44
372.257	335.44
372.72	331.44
373.183	318.44
373.646	309.44
374.109	328.44
374.572	332.44
375.035	341.44
375.497	333.44
375.96	337.44
376.423	360.44
376.886	384.44
377.349	343.44
377.811	357.44
378.274	341.44
378.737	363.44
379.199	355.44
379.662	372.44
380.125	351.44
380.587	364.44
381.05	387.44
381.512	381.44
381.975	381.44
382.437	391.44
382.9	389.44
383.362	390.44
383.825	403.44
384.287	396.44
384.75	390.44
385.212	369.44
385.674	399.44
386.136	411.44
386.599	420.44
387.061	384.44
387.523	388.44
387.985	392.44
388.447	413.44
388.91	375.44
389.372	407.44
389.834	429.44
390.296	375.44
390.758	417.44
391.22	394.44
391.682	407.44
392.144	406.44
392.606	418.44
393.068	393.44
393.529	437.44
393.991	483.44
394.453	414.44
394.915	408.44
395.377	413.44
395.838	418.44
396.3	427.44
396.762	414.44
397.224	437.44
397.685	404.44
398.147	429.44
398.608	426.44
399.07	416.44
399.531	434.44
399.993	462.44
400.454	465.44
400.916	488.44
401.377	449.44
401.839	457.44
402.3	465.44
402.762	461.44
403.223	508.44
403.684	485.44
404.145	473.44
404.607	487.44
405.068	439.44
405.529	491.44
405.99	497.44
406.451	467.44
406.913	483.44
407.374	465.44
407.835	467.44
408.296	483.44
408.757	499.44
409.218	499.44
409.679	515.44
410.14	507.44
410.601	544.44
411.062	529.44
411.522	527.44
411.983	529.44
412.444	545.44
412.905	559.44
413.366	578.44
413.826	631.44
414.287	670.44
414.748	808.44
415.208	855.44
415.669	714.44
416.13	643.44
416.59	641.44
417.051	666.44
417.511	694.44
417.972	743.44
418.432	801.44
418.893	887.44
419.353	816.44
419.814	641.44
420.274	579.44
420.734	572.44
421.195	565.44
421.655	581.44
422.115	600.44
422.576	587.44
423.036	599.44
423.496	625.44
423.956	663.44
424.416	689.44
424.876	764.44
425.336	753.44
425.797	734.44
426.257	717.44
426.717	697.44
427.177	645.44
427.637	584.44
428.097	635.44
428.556	628.44
429.016	690.44
429.476	654.44
429.936	623.44
430.396	619.44
430.856	630.44
431.315	660.44
431.775	691.44
432.235	730.44
432.694	743.44
433.154	706.44
433.614	687.44
434.073	679.44
434.533	625.44
434.993	615.44
435.452	626.44
435.912	632.44
436.371	643.44
436.83	647.44
437.29	631.44
437.749	614.44
438.209	629.44
438.668	643.44
439.127	639.44
439.587	687.44
440.046	633.44
440.505	665.44
440.964	640.44
441.424	716.44
441.883	705.44
442.342	708.44
442.801	646.44
443.26	649.44
443.719	651.44
444.178	648.44
444.637	666.44
445.096	680.44
445.555	702.44
446.014	689.44
446.473	676.44
446.932	709.44
447.391	679.44
447.849	710.44
448.308	678.44
448.767	697.44
449.226	706.44
449.685	710.44
450.143	731.44
450.602	732.44
451.061	725.44
451.519	709.44
451.978	709.44
452.436	710.44
452.895	716.44
453.353	705.44
453.812	718.44
454.27	729.44
454.729	700.44
455.187	729.44
455.646	689.44
456.104	697.44
456.562	724.44
457.021	709.44
457.479	696.44
457.937	716.44
458.395	725.44
458.854	709.44
459.312	715.44
459.77	709.44
460.228	764.44
460.686	747.44
461.144	784.44
461.602	741.44
462.06	745.44
462.518	751.44
462.976	780.44
463.434	789.44
463.892	763.44
464.35	795.44
464.808	793.44
465.266	815.44
465.724	805.44
466.181	809.44
466.639	827.44
467.097	830.44
467.555	866.44
468.012	848.44
468.47	893.44
468.928	911.44
469.385	882.44
469.843	891.44
470.3	893.44
470.758	938.44
471.215	956.44
471.673	960.44
472.13	985.44
472.588	1021.44
473.045	999.44
473.503	987.44
473.96	1023.44
474.417	1042.44
474.875	1100.44
475.332	1078.44
475.789	1107.44
476.246	1149.44
476.704	1139.44
477.161	1158.44
477.618	1175.44
478.075	1212.44
478.532	1253.44
478.989	1227.44
479.446	1299.44
479.903	1306.44
480.36	1343.44
480.817	1317.44
481.274	1328.44
481.731	1331.44
482.188	1377.44
482.645	1435.44
483.102	1438.44
483.558	1495.44
484.015	1515.44
484.472	1499.44
484.929	1539.44
485.385	1483.44
485.842	1498.44
486.299	1524.44
486.755	1486.44
487.212	1463.44
487.668	1447.44
488.125	1450.44
488.582	1419.44
489.038	1443.44
489.494	1473.44
489.951	1458.44
490.407	1446.44
490.864	1457.44
491.32	1442.44
491.776	1465.44
492.233	1475.44
492.689	1544.44
493.145	1502.44
493.602	1469.44
494.058	1516.44
494.514	1524.44
494.97	1535.44
495.426	1531.44
495.882	1585.44
496.338	1552.44
496.794	1533.44
497.251	1543.44
497.707	1600.44
498.163	1595.44
498.618	1589.44
499.074	1608.44
499.53	1603.44
499.986	1614.44
500.442	1611.44
500.898	1587.44
501.354	1651.44
501.809	1665.44
502.265	1632.44
502.721	1629.44
503.177	1653.44
503.632	1698.44
504.088	1662.44
504.543	1689.44
504.999	1680.44
505.455	1667.44
505.91	1660.44
506.366	1695.44
506.821	1715.44
507.277	1678.44
507.732	1686.44
508.187	1688.44
508.643	1659.44
509.098	1677.44
509.553	1751.44
510.009	1693.44
510.464	1737.44
510.919	1797.44
511.375	1820.44
511.83	1821.44
512.285	1835.44
512.74	1932.44
513.195	1967.44
513.65	1953.44
514.105	1978.44
514.56	2031.44
515.015	2041.44
515.47	2077.44
515.925	2030.44
516.38	1999.44
516.835	2017.44
517.29	1993.44
517.745	2023.44
518.2	2019.44
518.655	1962.44
519.109	1898.44
519.564	1894.44
520.019	1913.44
520.474	1906.44
520.928	1873.44
521.383	1849.44
521.838	1870.44
522.292	1798.44
522.747	1799.44
523.201	1812.44
523.656	1831.44
524.11	1779.44
524.565	1807.44
525.019	1772.44
525.474	1791.44
525.928	1747.44
526.382	1778.44
526.837	1769.44
527.291	1815.44
527.745	1799.44
528.2	1768.44
528.654	1786.44
529.108	1777.44
529.562	1766.44
530.016	1737.44
530.47	1752.44
530.925	1772.44
531.379	1776.44
531.833	1758.44
532.287	1781.44
532.741	1772.44
533.195	1731.44
533.649	1751.44
534.103	1767.44
534.556	1766.44
535.01	1740.44
535.464	1763.44
535.918	1769.44
536.372	1777.44
536.826	1752.44
537.279	1778.44
537.733	1796.44
538.187	1730.44
538.64	1799.44
539.094	1801.44
539.548	1791.44
540.001	1836.44
540.455	1786.44
540.908	1824.44
541.362	1818.44
541.815	1849.44
542.269	1909.44
542.722	1891.44
543.175	1902.44
543.629	1938.44
544.082	1890.44
544.536	2009.44
544.989	2004.44
545.442	1957.44
545.895	1990.44
546.349	1963.44
546.802	1959.44
547.255	1943.44
547.708	2026.44
548.161	2033.44
548.614	2049.44
549.067	2063.44
549.52	2046.44
549.973	2015.44
550.426	1955.44
550.879	2003.44
551.332	1995.44
551.785	2027.44
552.238	2029.44
552.691	2012.44
553.144	2076.44
553.596	2066.44
554.049	2153.44
554.502	2201.44
554.955	2184.44
555.407	2213.44
555.86	2177.44
556.313	2173.44
556.765	2166.44
557.218	2147.44
557.67	2133.44
558.123	2131.44
558.576	2074.44
559.028	2111.44
559.48	2161.44
559.933	2118.44
560.385	2108.44
560.838	2001.44
561.29	1928.44
561.742	1912.44
562.195	1857.44
562.647	1873.44
563.099	1859.44
563.551	1806.44
564.004	1880.44
564.456	1831.44
564.908	1803.44
565.36	1752.44
565.812	1706.44
566.264	1719.44
566.716	1702.44
567.168	1639.44
567.62	1636.44
568.072	1659.44
568.524	1643.44
568.976	1654.44
569.428	1630.44
569.88	1626.44
570.332	1636.44
570.784	1644.44
571.235	1606.44
571.687	1636.44
572.139	1664.44
572.59	1688.44
573.042	1691.44
573.494	1616.44
573.945	1671.44
574.397	1628.44
574.849	1607.44
575.3	1604.44
575.752	1603.44
576.203	1578.44
576.655	1571.44
577.106	1587.44
577.557	1566.44
578.009	1542.44
578.46	1531.44
578.912	1550.44
579.363	1528.44
579.814	1539.44
580.265	1569.44
580.717	1556.44
581.168	1568.44
581.619	1517.44
582.07	1545.44
582.521	1567.44
582.972	1530.44
583.423	1578.44
583.875	1566.44
584.326	1522.44
584.777	1570.44
585.227	1609.44
585.678	1624.44
586.129	1655.44
586.58	1685.44
587.031	1691.44
587.482	1769.44
587.933	1772.44
588.384	1811.44
588.834	1797.44
589.285	1746.44
589.736	1763.44
590.186	1770.44
590.637	1754.44
591.088	1741.44
591.538	1666.44
591.989	1615.44
592.439	1638.44
592.89	1595.44
593.34	1600.44
593.791	1606.44
594.241	1584.44
594.692	1589.44
595.142	1549.44
595.593	1574.44
596.043	1569.44
596.493	1615.44
596.943	1572.44
597.394	1608.44
597.844	1643.44
598.294	1649.44
598.744	1728.44
599.195	1815.44
599.645	1938.44
600.095	2027.44
600.545	2156.44
600.995	2271.44
601.445	2321.44
601.895	2462.44
602.345	2533.44
602.795	2597.44
603.245	2436.44
603.695	2280.44
604.145	2136.44
604.594	2024.44
605.044	1886.44
605.494	1742.44
605.944	1689.44
606.393	1657.44
606.843	1593.44
607.293	1606.44
607.743	1631.44
608.192	1611.44
608.642	1628.44
609.091	1612.44
609.541	1584.44
609.99	1594.44
610.44	1600.44
610.889	1560.44
611.339	1528.44
611.788	1523.44
612.238	1522.44
612.687	1509.44
613.136	1523.44
613.586	1544.44
614.035	1579.44
614.484	1544.44
614.933	1530.44
615.383	1530.44
615.832	1534.44
616.281	1485.44
616.73	1445.44
617.179	1409.44
617.628	1424.44
618.077	1382.44
618.526	1337.44
618.975	1336.44
619.424	1325.44
619.873	1341.44
620.322	1331.44
620.771	1326.44
621.22	1281.44
621.669	1253.44
622.118	1256.44
622.567	1243.44
623.015	1193.44
623.464	1224.44
623.913	1172.44
624.361	1181.44
624.81	1199.44
625.259	1209.44
625.707	1211.44
626.156	1210.44
626.604	1206.44
627.053	1251.44
627.501	1246.44
627.95	1245.44
628.398	1283.44
628.847	1239.44
629.295	1223.44
629.744	1248.44
630.192	1190.44
630.64	1195.44
631.089	1137.44
631.537	1139.44
631.985	1128.44
632.433	1091.44
632.881	1086.44
633.33	1133.44
633.778	1096.44
634.226	1103.44
634.674	1128.44
635.122	1131.44
635.57	1163.44
636.018	1187.44
636.466	1211.44
636.914	1169.44
637.362	1150.44
637.81	1172.44
638.258	1202.44
638.705	1225.44
639.153	1265.44
639.601	1273.44
640.049	1296.44
640.497	1291.44
640.944	1380.44
641.392	1337.44
641.84	1197.44
642.287	1140.44
642.735	1109.44
643.182	1079.44
643.63	1065.44
644.078	1047.44
644.525	1091.44
644.973	1065.44
645.42	1066.44
645.867	1062.44
646.315	1071.44
646.762	1078.44
647.21	1077.44
647.657	1076.44
648.104	1078.44
648.551	1056.44
648.999	1037.44
649.446	1022.44
649.893	1053.44
650.34	1017.44
650.787	1094.44
651.234	1109.44
651.682	1175.44
652.129	1254.44
652.576	1376.44
653.023	1576.44
653.47	1822.44
653.917	1882.44
654.363	1892.44
654.81	1959.44
655.257	2083.44
655.704	1733.44
656.151	1351.44
656.598	1159.44
657.044	1091.44
657.491	1023.44
657.938	1006.44
658.385	988.44
658.831	971.44
659.278	994.44
659.724	979.44
660.171	954.44
660.618	955.44
661.064	944.44
661.511	905.44
661.957	929.44
662.404	898.44
662.85	933.44
663.296	948.44
663.743	997.44
664.189	982.44
664.635	978.44
665.082	956.44
665.528	980.44
665.974	946.44
666.42	912.44
666.867	927.44
667.313	918.44
667.759	873.44
668.205	848.44
668.651	873.44
669.097	883.44
669.543	907.44
669.989	877.44
670.435	899.44
670.881	942.44
671.327	929.44
671.773	1028.44
672.219	1111.44
672.665	1161.44
673.11	1228.44
673.556	1229.44
674.002	1269.44
674.448	1356.44
674.893	1191.44
675.339	1024.44
675.785	921.44
676.23	881.44
676.676	833.44
677.122	819.44
677.567	801.44
678.013	750.44
678.458	792.44
678.904	768.44
679.349	738.44
679.794	741.44
680.24	773.44
680.685	788.44
681.131	746.44
681.576	758.44
682.021	751.44
682.466	757.44
682.912	781.44
683.357	739.44
683.802	843.44
684.247	907.44
684.692	1004.44
685.137	1057.44
685.583	1087.44
686.028	1122.44
686.473	1087.44
686.918	968.44
687.363	866.44
687.807	844.44
688.252	803.44
688.697	734.44
689.142	747.44
689.587	771.44
690.032	727.44
690.477	766.44
690.921	838.44
691.366	840.44
691.811	898.44
692.255	911.44
692.7	1059.44
693.145	1465.44
693.589	2170.44
694.034	2906.44
694.478	3287.44
694.923	3069.44
695.367	3823.44
695.812	3413.44
696.256	1332.44
696.701	858.44
697.145	780.44
697.59	719.44
698.034	715.44
698.478	700.44
698.922	724.44
699.367	739.44
699.811	774.44
700.255	823.44
700.699	905.44
701.143	960.44
701.588	1017.44
702.032	1075.44
702.476	1122.44
702.92	1125.44
703.364	1333.44
703.808	1948.44
704.252	2837.44
704.696	3157.44
705.14	2906.44
705.584	3730.44
706.027	2931.44
706.471	1340.44
706.915	932.44
707.359	795.44
707.803	702.44
708.246	726.44
708.69	691.44
709.134	655.44
709.577	663.44
710.021	664.44
710.465	661.44
710.908	680.44
711.352	691.44
711.795	744.44
712.239	845.44
712.682	876.44
713.126	850.44
713.569	931.44
714.012	841.44
714.456	697.44
714.899	656.44
715.342	602.44
715.786	626.44
716.229	592.44
716.672	560.44
717.115	557.44
717.558	571.44
718.002	583.44
718.445	615.44
718.888	639.44
719.331	654.44
719.774	672.44
720.217	677.44
720.66	629.44
721.103	581.44
721.546	568.44
721.989	551.44
722.432	541.44
722.874	539.44
723.317	550.44
723.76	570.44
724.203	664.44
724.645	866.44
725.088	1087.44
725.531	1142.44
725.974	1125.44
726.416	1184.44
726.859	759.44
727.301	613.44
727.744	527.44
728.187	544.44
728.629	550.44
729.071	589.44
729.514	589.44
729.956	621.44
730.399	679.44
730.841	620.44
731.283	613.44
731.726	609.44
732.168	585.44
732.61	647.44
733.053	690.44
733.495	763.44
733.937	812.44
734.379	901.44
734.821	1093.44
735.263	1566.44
735.705	2689.44
736.148	4491.44
736.59	5299.44
737.032	4920.44
737.474	5309.44
737.916	2418.44
738.357	1132.44
738.799	761.44
739.241	709.44
739.683	690.44
740.125	681.44
740.567	691.44
741.008	720.44
741.45	793.44
741.892	810.44
742.334	819.44
742.775	783.44
743.217	794.44
