Data from 20170802-ORNL-NYSim-Air_HRD10391_10-36-00-562.txt Node
Date: Wed Aug 02 10:36:00 EDT 2017
User: Ender
Spectrometer: HR+D1039
Trigger mode: 0
Integration Time (sec): 3.750000E-3
Scans to average: 1
Electric dark correction enabled: true
Nonlinearity correction enabled: false
Boxcar width: 0
XAxis mode: Wavelengths
Number of Pixels in Spectrum: 2048
>>>>>Begin Spectral Data<<<<<
187.836	6.19
188.309	6.19
188.782	6.19
189.255	0.19
189.728	-11.81
190.201	-4.81
190.674	-5.81
191.147	-1.81
191.619	2.19
192.092	-15.81
192.565	-1.81
193.038	-3.81
193.511	0.19
193.984	7.19
194.456	5.19
194.929	-1.81
195.402	25.19
195.874	1.19
196.347	30.19
196.82	35.19
197.292	17.19
197.765	18.19
198.237	30.19
198.71	36.19
199.182	36.19
199.655	45.19
200.127	58.19
200.6	57.19
201.072	58.19
201.544	68.19
202.017	66.19
202.489	63.19
202.961	73.19
203.433	68.19
203.906	69.19
204.378	64.19
204.85	74.19
205.322	76.19
205.794	86.19
206.266	81.19
206.739	81.19
207.211	76.19
207.683	85.19
208.155	79.19
208.627	84.19
209.099	89.19
209.57	71.19
210.042	68.19
210.514	79.19
210.986	60.19
211.458	76.19
211.93	73.19
212.402	88.19
212.873	91.19
213.345	76.19
213.817	85.19
214.288	86.19
214.76	89.19
215.232	62.19
215.703	97.19
216.175	80.19
216.646	74.19
217.118	88.19
217.589	80.19
218.061	82.19
218.532	88.19
219.004	101.19
219.475	86.19
219.946	78.19
220.418	88.19
220.889	76.19
221.36	75.19
221.832	60.19
222.303	87.19
222.774	83.19
223.245	77.19
223.717	71.19
224.188	64.19
224.659	65.19
225.13	63.19
225.601	70.19
226.072	68.19
226.543	80.19
227.014	79.19
227.485	80.19
227.956	79.19
228.427	58.19
228.898	72.19
229.369	85.19
229.839	97.19
230.31	95.19
230.781	89.19
231.252	80.19
231.722	92.19
232.193	70.19
232.664	84.19
233.135	87.19
233.605	66.19
234.076	78.19
234.546	80.19
235.017	88.19
235.487	79.19
235.958	80.19
236.428	87.19
236.899	86.19
237.369	96.19
237.84	91.19
238.31	82.19
238.78	72.19
239.251	70.19
239.721	93.19
240.191	73.19
240.662	102.19
241.132	98.19
241.602	77.19
242.072	97.19
242.542	89.19
243.013	91.19
243.483	90.19
243.953	86.19
244.423	78.19
244.893	96.19
245.363	94.19
245.833	96.19
246.303	76.19
246.773	92.19
247.243	103.19
247.712	98.19
248.182	86.19
248.652	79.19
249.122	96.19
249.592	72.19
250.061	76.19
250.531	92.19
251.001	93.19
251.471	85.19
251.94	80.19
252.41	77.19
252.879	78.19
253.349	116.19
253.818	94.19
254.288	100.19
254.757	96.19
255.227	97.19
255.696	84.19
256.166	83.19
256.635	93.19
257.105	94.19
257.574	90.19
258.043	102.19
258.513	87.19
258.982	103.19
259.451	102.19
259.92	85.19
260.389	94.19
260.859	94.19
261.328	80.19
261.797	104.19
262.266	102.19
262.735	88.19
263.204	88.19
263.673	97.19
264.142	106.19
264.611	105.19
265.08	99.19
265.549	113.19
266.018	89.19
266.487	100.19
266.955	98.19
267.424	101.19
267.893	116.19
268.362	119.19
268.83	112.19
269.299	97.19
269.768	99.19
270.236	110.19
270.705	100.19
271.174	103.19
271.642	109.19
272.111	106.19
272.579	105.19
273.048	107.19
273.516	100.19
273.985	103.19
274.453	110.19
274.922	120.19
275.39	98.19
275.858	104.19
276.327	107.19
276.795	118.19
277.263	104.19
277.731	111.19
278.2	118.19
278.668	109.19
279.136	106.19
279.604	108.19
280.072	114.19
280.54	110.19
281.008	109.19
281.477	117.19
281.945	101.19
282.413	127.19
282.881	120.19
283.348	130.19
283.816	124.19
284.284	126.19
284.752	127.19
285.22	114.19
285.688	120.19
286.156	132.19
286.623	136.19
287.091	133.19
287.559	116.19
288.026	124.19
288.494	102.19
288.962	112.19
289.429	114.19
289.897	128.19
290.364	126.19
290.832	131.19
291.3	122.19
291.767	128.19
292.234	127.19
292.702	130.19
293.169	126.19
293.637	138.19
294.104	131.19
294.571	130.19
295.039	119.19
295.506	143.19
295.973	113.19
296.44	135.19
296.908	124.19
297.375	141.19
297.842	149.19
298.309	134.19
298.776	131.19
299.243	133.19
299.71	135.19
300.177	130.19
300.644	137.19
301.111	144.19
301.578	139.19
302.045	135.19
302.512	136.19
302.979	155.19
303.446	146.19
303.913	154.19
304.379	160.19
304.846	143.19
305.313	161.19
305.78	142.19
306.246	152.19
306.713	162.19
307.18	147.19
307.646	147.19
308.113	159.19
308.579	152.19
309.046	148.19
309.512	144.19
309.979	145.19
310.445	143.19
310.912	155.19
311.378	160.19
311.845	187.19
312.311	149.19
312.777	135.19
313.244	171.19
313.71	167.19
314.176	159.19
314.642	150.19
315.109	173.19
315.575	172.19
316.041	165.19
316.507	175.19
316.973	174.19
317.439	150.19
317.905	155.19
318.371	167.19
318.837	172.19
319.303	181.19
319.769	175.19
320.235	166.19
320.701	171.19
321.167	166.19
321.633	179.19
322.099	178.19
322.564	194.19
323.03	187.19
323.496	195.19
323.962	197.19
324.427	193.19
324.893	182.19
325.359	182.19
325.824	191.19
326.29	180.19
326.755	199.19
327.221	189.19
327.686	185.19
328.152	194.19
328.617	195.19
329.083	189.19
329.548	189.19
330.014	189.19
330.479	200.19
330.944	201.19
331.41	219.19
331.875	205.19
332.34	194.19
332.805	214.19
333.271	214.19
333.736	202.19
334.201	202.19
334.666	208.19
335.131	206.19
335.596	207.19
336.061	204.19
336.526	189.19
336.991	201.19
337.456	193.19
337.921	216.19
338.386	216.19
338.851	219.19
339.316	202.19
339.781	204.19
340.246	205.19
340.711	230.19
341.175	213.19
341.64	215.19
342.105	219.19
342.569	236.19
343.034	207.19
343.499	220.19
343.963	222.19
344.428	256.19
344.893	219.19
345.357	227.19
345.822	237.19
346.286	224.19
346.751	254.19
347.215	244.19
347.679	257.19
348.144	246.19
348.608	263.19
349.073	264.19
349.537	252.19
350.001	250.19
350.465	276.19
350.93	234.19
351.394	275.19
351.858	288.19
352.322	282.19
352.786	262.19
353.25	250.19
353.715	271.19
354.179	285.19
354.643	290.19
355.107	306.19
355.571	301.19
356.035	282.19
356.498	272.19
356.962	306.19
357.426	294.19
357.89	276.19
358.354	266.19
358.818	270.19
359.281	280.19
359.745	278.19
360.209	306.19
360.673	293.19
361.136	264.19
361.6	295.19
362.064	287.19
362.527	295.19
362.991	279.19
363.454	314.19
363.918	282.19
364.381	302.19
364.845	296.19
365.308	297.19
365.772	313.19
366.235	292.19
366.698	316.19
367.162	282.19
367.625	299.19
368.088	295.19
368.552	297.19
369.015	316.19
369.478	325.19
369.941	321.19
370.404	321.19
370.867	315.19
371.331	327.19
371.794	317.19
372.257	351.19
372.72	310.19
373.183	330.19
373.646	336.19
374.109	320.19
374.572	352.19
375.035	320.19
375.497	344.19
375.96	354.19
376.423	338.19
376.886	358.19
377.349	341.19
377.811	340.19
378.274	356.19
378.737	358.19
379.199	349.19
379.662	344.19
380.125	349.19
380.587	383.19
381.05	376.19
381.512	382.19
381.975	382.19
382.437	387.19
382.9	416.19
383.362	392.19
383.825	378.19
384.287	397.19
384.75	398.19
385.212	380.19
385.674	383.19
386.136	399.19
386.599	418.19
387.061	402.19
387.523	379.19
387.985	389.19
388.447	406.19
388.91	422.19
389.372	400.19
389.834	415.19
390.296	389.19
390.758	408.19
391.22	411.19
391.682	401.19
392.144	414.19
392.606	410.19
393.068	404.19
393.529	437.19
393.991	458.19
394.453	436.19
394.915	448.19
395.377	417.19
395.838	414.19
396.3	412.19
396.762	409.19
397.224	414.19
397.685	441.19
398.147	449.19
398.608	451.19
399.07	430.19
399.531	464.19
399.993	455.19
400.454	481.19
400.916	491.19
401.377	463.19
401.839	450.19
402.3	466.19
402.762	484.19
403.223	510.19
403.684	512.19
404.145	505.19
404.607	487.19
405.068	462.19
405.529	457.19
405.99	465.19
406.451	489.19
406.913	486.19
407.374	487.19
407.835	448.19
408.296	480.19
408.757	487.19
409.218	514.19
409.679	535.19
410.14	519.19
410.601	526.19
411.062	548.19
411.522	533.19
411.983	537.19
412.444	572.19
412.905	585.19
413.366	612.19
413.826	614.19
414.287	674.19
414.748	853.19
415.208	850.19
415.669	754.19
416.13	650.19
416.59	656.19
417.051	662.19
417.511	715.19
417.972	731.19
418.432	786.19
418.893	886.19
419.353	850.19
419.814	671.19
420.274	585.19
420.734	608.19
421.195	576.19
421.655	599.19
422.115	625.19
422.576	586.19
423.036	596.19
423.496	605.19
423.956	638.19
424.416	701.19
424.876	766.19
425.336	776.19
425.797	712.19
426.257	717.19
426.717	671.19
427.177	612.19
427.637	606.19
428.097	638.19
428.556	641.19
429.016	672.19
429.476	664.19
429.936	649.19
430.396	639.19
430.856	636.19
431.315	661.19
431.775	707.19
432.235	753.19
432.694	742.19
433.154	698.19
433.614	680.19
434.073	689.19
434.533	620.19
434.993	630.19
435.452	650.19
435.912	634.19
436.371	643.19
436.83	638.19
437.29	633.19
437.749	636.19
438.209	640.19
438.668	637.19
439.127	676.19
439.587	681.19
440.046	652.19
440.505	672.19
440.964	669.19
441.424	665.19
441.883	748.19
442.342	696.19
442.801	685.19
443.26	644.19
443.719	647.19
444.178	648.19
444.637	655.19
445.096	684.19
445.555	680.19
446.014	693.19
446.473	680.19
446.932	687.19
447.391	692.19
447.849	724.19
448.308	712.19
448.767	702.19
449.226	725.19
449.685	723.19
450.143	750.19
450.602	758.19
451.061	727.19
451.519	678.19
451.978	729.19
452.436	713.19
452.895	719.19
453.353	717.19
453.812	679.19
454.27	725.19
454.729	723.19
455.187	694.19
455.646	684.19
456.104	707.19
456.562	745.19
457.021	722.19
457.479	715.19
457.937	713.19
458.395	746.19
458.854	733.19
459.312	743.19
459.77	709.19
460.228	727.19
460.686	756.19
461.144	746.19
461.602	770.19
462.06	735.19
462.518	774.19
462.976	745.19
463.434	740.19
463.892	800.19
464.35	799.19
464.808	798.19
465.266	798.19
465.724	799.19
466.181	826.19
466.639	812.19
467.097	855.19
467.555	899.19
468.012	868.19
468.47	867.19
468.928	897.19
469.385	894.19
469.843	933.19
470.3	928.19
470.758	928.19
471.215	950.19
471.673	1002.19
472.13	1005.19
472.588	992.19
473.045	1020.19
473.503	1024.19
473.96	1068.19
474.417	1067.19
474.875	1062.19
475.332	1111.19
475.789	1098.19
476.246	1143.19
476.704	1163.19
477.161	1165.19
477.618	1205.19
478.075	1181.19
478.532	1255.19
478.989	1251.19
479.446	1319.19
479.903	1272.19
480.36	1323.19
480.817	1329.19
481.274	1338.19
481.731	1378.19
482.188	1414.19
482.645	1411.19
483.102	1428.19
483.558	1478.19
484.015	1510.19
484.472	1478.19
484.929	1530.19
485.385	1532.19
485.842	1478.19
486.299	1525.19
486.755	1505.19
487.212	1498.19
487.668	1499.19
488.125	1494.19
488.582	1421.19
489.038	1464.19
489.494	1474.19
489.951	1485.19
490.407	1484.19
490.864	1471.19
491.32	1484.19
491.776	1468.19
492.233	1511.19
492.689	1526.19
493.145	1458.19
493.602	1494.19
494.058	1508.19
494.514	1520.19
494.97	1527.19
495.426	1538.19
495.882	1538.19
496.338	1598.19
496.794	1558.19
497.251	1602.19
497.707	1555.19
498.163	1613.19
498.618	1653.19
499.074	1575.19
499.53	1624.19
499.986	1640.19
500.442	1612.19
500.898	1617.19
501.354	1608.19
501.809	1640.19
502.265	1613.19
502.721	1626.19
503.177	1631.19
503.632	1643.19
504.088	1627.19
504.543	1676.19
504.999	1713.19
505.455	1726.19
505.91	1644.19
506.366	1649.19
506.821	1734.19
507.277	1708.19
507.732	1695.19
508.187	1693.19
508.643	1715.19
509.098	1674.19
509.553	1738.19
510.009	1738.19
510.464	1754.19
510.919	1812.19
511.375	1798.19
511.83	1829.19
512.285	1841.19
512.74	1905.19
513.195	1958.19
513.65	1961.19
514.105	1917.19
514.56	1989.19
515.015	2001.19
515.47	2045.19
515.925	2020.19
516.38	1997.19
516.835	2046.19
517.29	1980.19
517.745	2019.19
518.2	1981.19
518.655	1955.19
519.109	1942.19
519.564	1893.19
520.019	1937.19
520.474	1838.19
520.928	1851.19
521.383	1891.19
521.838	1830.19
522.292	1830.19
522.747	1813.19
523.201	1850.19
523.656	1772.19
524.11	1780.19
524.565	1750.19
525.019	1756.19
525.474	1790.19
525.928	1784.19
526.382	1757.19
526.837	1768.19
527.291	1793.19
527.745	1813.19
528.2	1778.19
528.654	1742.19
529.108	1734.19
529.562	1785.19
530.016	1756.19
530.47	1758.19
530.925	1776.19
531.379	1744.19
531.833	1768.19
532.287	1771.19
532.741	1752.19
533.195	1742.19
533.649	1754.19
534.103	1754.19
534.556	1770.19
535.01	1775.19
535.464	1753.19
535.918	1746.19
536.372	1777.19
536.826	1795.19
537.279	1794.19
537.733	1773.19
538.187	1794.19
538.64	1739.19
539.094	1796.19
539.548	1830.19
540.001	1805.19
540.455	1823.19
540.908	1841.19
541.362	1841.19
541.815	1835.19
542.269	1889.19
542.722	1926.19
543.175	1900.19
543.629	1890.19
544.082	1963.19
544.536	1938.19
544.989	1908.19
545.442	1965.19
545.895	1976.19
546.349	1932.19
546.802	1978.19
547.255	1998.19
547.708	1997.19
548.161	2022.19
548.614	2028.19
549.067	2052.19
549.52	2034.19
549.973	2009.19
550.426	2002.19
550.879	1967.19
551.332	1969.19
551.785	2006.19
552.238	2026.19
552.691	2055.19
553.144	2074.19
553.596	2094.19
554.049	2113.19
554.502	2181.19
554.955	2232.19
555.407	2220.19
555.86	2207.19
556.313	2180.19
556.765	2179.19
557.218	2143.19
557.67	2126.19
558.123	2127.19
558.576	2092.19
559.028	2150.19
559.48	2115.19
559.933	2123.19
560.385	2037.19
560.838	1988.19
561.29	1909.19
561.742	1891.19
562.195	1864.19
562.647	1877.19
563.099	1902.19
563.551	1831.19
564.004	1864.19
564.456	1885.19
564.908	1804.19
565.36	1785.19
565.812	1767.19
566.264	1724.19
566.716	1688.19
567.168	1643.19
567.62	1688.19
568.072	1632.19
568.524	1615.19
568.976	1623.19
569.428	1577.19
569.88	1588.19
570.332	1629.19
570.784	1624.19
571.235	1634.19
571.687	1662.19
572.139	1643.19
572.59	1676.19
573.042	1670.19
573.494	1685.19
573.945	1652.19
574.397	1664.19
574.849	1610.19
575.3	1634.19
575.752	1617.19
576.203	1594.19
576.655	1586.19
577.106	1566.19
577.557	1555.19
578.009	1571.19
578.46	1545.19
578.912	1508.19
579.363	1544.19
579.814	1582.19
580.265	1528.19
580.717	1536.19
581.168	1547.19
581.619	1556.19
582.07	1572.19
582.521	1571.19
582.972	1538.19
583.423	1530.19
583.875	1528.19
584.326	1561.19
584.777	1592.19
585.227	1564.19
585.678	1664.19
586.129	1658.19
586.58	1680.19
587.031	1728.19
587.482	1722.19
587.933	1803.19
588.384	1778.19
588.834	1751.19
589.285	1732.19
589.736	1739.19
590.186	1782.19
590.637	1770.19
591.088	1701.19
591.538	1635.19
591.989	1624.19
592.439	1616.19
592.89	1581.19
593.34	1582.19
593.791	1594.19
594.241	1599.19
594.692	1572.19
595.142	1574.19
595.593	1559.19
596.043	1582.19
596.493	1592.19
596.943	1557.19
597.394	1608.19
597.844	1621.19
598.294	1695.19
598.744	1734.19
599.195	1756.19
599.645	1878.19
600.095	2006.19
600.545	2155.19
600.995	2202.19
601.445	2318.19
601.895	2408.19
602.345	2536.19
602.795	2518.19
603.245	2412.19
603.695	2288.19
604.145	2127.19
604.594	2048.19
605.044	1894.19
605.494	1778.19
605.944	1674.19
606.393	1638.19
606.843	1572.19
607.293	1626.19
607.743	1590.19
608.192	1602.19
608.642	1631.19
609.091	1614.19
609.541	1619.19
609.99	1606.19
610.44	1559.19
610.889	1580.19
611.339	1572.19
611.788	1500.19
612.238	1524.19
612.687	1516.19
613.136	1550.19
613.586	1535.19
614.035	1559.19
614.484	1570.19
614.933	1556.19
615.383	1543.19
615.832	1524.19
616.281	1479.19
616.73	1456.19
617.179	1455.19
617.628	1374.19
618.077	1334.19
618.526	1352.19
618.975	1351.19
619.424	1341.19
619.873	1298.19
620.322	1320.19
620.771	1309.19
621.22	1284.19
621.669	1238.19
622.118	1256.19
622.567	1274.19
623.015	1219.19
623.464	1220.19
623.913	1210.19
624.361	1206.19
624.81	1201.19
625.259	1146.19
625.707	1174.19
626.156	1194.19
626.604	1204.19
627.053	1222.19
627.501	1222.19
627.95	1220.19
628.398	1257.19
628.847	1256.19
629.295	1272.19
629.744	1206.19
630.192	1224.19
630.64	1152.19
631.089	1173.19
631.537	1129.19
631.985	1120.19
632.433	1102.19
632.881	1089.19
633.33	1071.19
633.778	1094.19
634.226	1108.19
634.674	1124.19
635.122	1151.19
635.57	1100.19
636.018	1152.19
636.466	1142.19
636.914	1147.19
637.362	1165.19
637.81	1167.19
638.258	1222.19
638.705	1217.19
639.153	1260.19
639.601	1281.19
640.049	1298.19
640.497	1296.19
640.944	1392.19
641.392	1309.19
641.84	1166.19
642.287	1128.19
642.735	1062.19
643.182	1070.19
643.63	1042.19
644.078	1083.19
644.525	1054.19
644.973	1086.19
645.42	1073.19
645.867	1089.19
646.315	1079.19
646.762	1094.19
647.21	1078.19
647.657	1104.19
648.104	1066.19
648.551	1028.19
648.999	1049.19
649.446	1048.19
649.893	1004.19
650.34	1032.19
650.787	1072.19
651.234	1099.19
651.682	1157.19
652.129	1262.19
652.576	1396.19
653.023	1610.19
653.47	1826.19
653.917	1867.19
654.363	1930.19
654.81	1972.19
655.257	2113.19
655.704	1788.19
656.151	1374.19
656.598	1196.19
657.044	1090.19
657.491	1040.19
657.938	1009.19
658.385	1014.19
658.831	1037.19
659.278	956.19
659.724	1003.19
660.171	951.19
660.618	911.19
661.064	941.19
661.511	934.19
661.957	927.19
662.404	905.19
662.85	918.19
663.296	949.19
663.743	930.19
664.189	942.19
664.635	986.19
665.082	951.19
665.528	954.19
665.974	941.19
666.42	907.19
666.867	932.19
667.313	858.19
667.759	868.19
668.205	847.19
668.651	867.19
669.097	914.19
669.543	918.19
669.989	906.19
670.435	888.19
670.881	933.19
671.327	952.19
671.773	986.19
672.219	1083.19
672.665	1188.19
673.11	1226.19
673.556	1242.19
674.002	1255.19
674.448	1292.19
674.893	1189.19
675.339	990.19
675.785	923.19
676.23	880.19
676.676	818.19
677.122	808.19
677.567	809.19
678.013	781.19
678.458	758.19
678.904	784.19
679.349	772.19
679.794	754.19
680.24	764.19
680.685	746.19
681.131	771.19
681.576	738.19
682.021	793.19
682.466	719.19
682.912	766.19
683.357	791.19
683.802	810.19
684.247	948.19
684.692	1001.19
685.137	1068.19
685.583	1082.19
686.028	1144.19
686.473	1154.19
686.918	998.19
687.363	898.19
687.807	853.19
688.252	813.19
688.697	742.19
689.142	757.19
689.587	719.19
690.032	738.19
690.477	776.19
690.921	779.19
691.366	873.19
691.811	900.19
692.255	942.19
692.7	1087.19
693.145	1436.19
693.589	2189.19
694.034	2954.19
694.478	3275.19
694.923	3017.19
695.367	3760.19
695.812	3416.19
696.256	1312.19
696.701	862.19
697.145	732.19
697.59	744.19
698.034	699.19
698.478	722.19
698.922	684.19
699.367	715.19
699.811	775.19
700.255	824.19
700.699	896.19
701.143	937.19
701.588	1029.19
702.032	1059.19
702.476	1106.19
702.92	1140.19
703.364	1290.19
703.808	1900.19
704.252	2776.19
704.696	3092.19
705.14	2868.19
705.584	3677.19
706.027	2916.19
706.471	1346.19
706.915	896.19
707.359	783.19
707.803	748.19
708.246	675.19
708.69	677.19
709.134	675.19
709.577	695.19
710.021	693.19
710.465	690.19
710.908	658.19
711.352	705.19
711.795	746.19
712.239	799.19
712.682	839.19
713.126	832.19
713.569	906.19
714.012	832.19
714.456	718.19
714.899	648.19
715.342	615.19
715.786	604.19
716.229	548.19
716.672	532.19
717.115	564.19
717.558	555.19
718.002	578.19
718.445	618.19
718.888	631.19
719.331	676.19
719.774	664.19
720.217	684.19
720.66	641.19
721.103	564.19
721.546	570.19
721.989	571.19
722.432	536.19
722.874	557.19
723.317	534.19
723.76	580.19
724.203	636.19
724.645	862.19
725.088	1104.19
725.531	1106.19
725.974	1086.19
726.416	1191.19
726.859	760.19
727.301	590.19
727.744	530.19
728.187	525.19
728.629	518.19
729.071	592.19
729.514	606.19
729.956	642.19
730.399	630.19
730.841	616.19
731.283	616.19
731.726	631.19
732.168	585.19
732.61	603.19
733.053	680.19
733.495	729.19
733.937	835.19
734.379	904.19
734.821	1125.19
735.263	1576.19
735.705	2676.19
736.148	4571.19
736.59	5352.19
737.032	5018.19
737.474	5362.19
737.916	2446.19
738.357	1148.19
738.799	794.19
739.241	702.19
739.683	666.19
740.125	656.19
740.567	683.19
741.008	738.19
741.45	753.19
741.892	818.19
742.334	807.19
742.775	810.19
743.217	793.19
