Data from 20170802-ORNL-NYSim-Air_HRD10391_10-36-10-573.txt Node
Date: Wed Aug 02 10:36:10 EDT 2017
User: Ender
Spectrometer: HR+D1039
Trigger mode: 0
Integration Time (sec): 3.750000E-3
Scans to average: 1
Electric dark correction enabled: true
Nonlinearity correction enabled: false
Boxcar width: 0
XAxis mode: Wavelengths
Number of Pixels in Spectrum: 2048
>>>>>Begin Spectral Data<<<<<
187.836	2.31
188.309	2.31
188.782	2.31
189.255	-8.69
189.728	4.31
190.201	-0.69
190.674	-6.69
191.147	-22.69
191.619	-2.69
192.092	-11.69
192.565	-12.69
193.038	12.31
193.511	17.31
193.984	4.31
194.456	-3.69
194.929	4.31
195.402	15.31
195.874	9.31
196.347	7.31
196.82	40.31
197.292	40.31
197.765	34.31
198.237	26.31
198.71	51.31
199.182	53.31
199.655	45.31
200.127	60.31
200.6	69.31
201.072	64.31
201.544	65.31
202.017	68.31
202.489	72.31
202.961	63.31
203.433	81.31
203.906	80.31
204.378	83.31
204.85	78.31
205.322	81.31
205.794	65.31
206.266	79.31
206.739	87.31
207.211	95.31
207.683	89.31
208.155	90.31
208.627	76.31
209.099	73.31
209.57	87.31
210.042	94.31
210.514	92.31
210.986	94.31
211.458	78.31
211.93	87.31
212.402	85.31
212.873	82.31
213.345	107.31
213.817	96.31
214.288	99.31
214.76	73.31
215.232	82.31
215.703	81.31
216.175	83.31
216.646	86.31
217.118	90.31
217.589	88.31
218.061	77.31
218.532	80.31
219.004	82.31
219.475	99.31
219.946	90.31
220.418	83.31
220.889	81.31
221.36	79.31
221.832	89.31
222.303	92.31
222.774	76.31
223.245	76.31
223.717	74.31
224.188	75.31
224.659	77.31
225.13	91.31
225.601	99.31
226.072	82.31
226.543	82.31
227.014	89.31
227.485	81.31
227.956	68.31
228.427	73.31
228.898	82.31
229.369	86.31
229.839	100.31
230.31	77.31
230.781	91.31
231.252	103.31
231.722	82.31
232.193	89.31
232.664	92.31
233.135	99.31
233.605	92.31
234.076	97.31
234.546	71.31
235.017	98.31
235.487	90.31
235.958	80.31
236.428	96.31
236.899	101.31
237.369	96.31
237.84	86.31
238.31	85.31
238.78	90.31
239.251	122.31
239.721	106.31
240.191	96.31
240.662	113.31
241.132	89.31
241.602	96.31
242.072	92.31
242.542	85.31
243.013	93.31
243.483	89.31
243.953	101.31
244.423	76.31
244.893	88.31
245.363	93.31
245.833	111.31
246.303	95.31
246.773	92.31
247.243	89.31
247.712	97.31
248.182	93.31
248.652	95.31
249.122	99.31
249.592	97.31
250.061	91.31
250.531	90.31
251.001	106.31
251.471	98.31
251.94	101.31
252.41	100.31
252.879	97.31
253.349	107.31
253.818	80.31
254.288	101.31
254.757	85.31
255.227	96.31
255.696	101.31
256.166	108.31
256.635	103.31
257.105	86.31
257.574	105.31
258.043	102.31
258.513	103.31
258.982	113.31
259.451	108.31
259.92	104.31
260.389	103.31
260.859	107.31
261.328	113.31
261.797	107.31
262.266	101.31
262.735	109.31
263.204	101.31
263.673	121.31
264.142	106.31
264.611	96.31
265.08	115.31
265.549	114.31
266.018	105.31
266.487	106.31
266.955	105.31
267.424	108.31
267.893	114.31
268.362	105.31
268.83	108.31
269.299	126.31
269.768	110.31
270.236	121.31
270.705	116.31
271.174	103.31
271.642	109.31
272.111	118.31
272.579	123.31
273.048	112.31
273.516	118.31
273.985	120.31
274.453	109.31
274.922	114.31
275.39	109.31
275.858	104.31
276.327	115.31
276.795	124.31
277.263	118.31
277.731	126.31
278.2	95.31
278.668	121.31
279.136	118.31
279.604	121.31
280.072	124.31
280.54	120.31
281.008	118.31
281.477	143.31
281.945	115.31
282.413	134.31
282.881	115.31
283.348	123.31
283.816	110.31
284.284	119.31
284.752	117.31
285.22	133.31
285.688	134.31
286.156	129.31
286.623	123.31
287.091	135.31
287.559	144.31
288.026	120.31
288.494	122.31
288.962	130.31
289.429	133.31
289.897	140.31
290.364	125.31
290.832	141.31
291.3	124.31
291.767	129.31
292.234	129.31
292.702	134.31
293.169	128.31
293.637	136.31
294.104	139.31
294.571	137.31
295.039	141.31
295.506	142.31
295.973	146.31
296.44	156.31
296.908	159.31
297.375	131.31
297.842	132.31
298.309	136.31
298.776	165.31
299.243	141.31
299.71	131.31
300.177	138.31
300.644	123.31
301.111	138.31
301.578	153.31
302.045	137.31
302.512	131.31
302.979	156.31
303.446	159.31
303.913	167.31
304.379	145.31
304.846	134.31
305.313	143.31
305.78	159.31
306.246	154.31
306.713	158.31
307.18	151.31
307.646	163.31
308.113	158.31
308.579	153.31
309.046	172.31
309.512	169.31
309.979	161.31
310.445	163.31
310.912	179.31
311.378	177.31
311.845	163.31
312.311	165.31
312.777	166.31
313.244	171.31
313.71	173.31
314.176	171.31
314.642	182.31
315.109	179.31
315.575	181.31
316.041	186.31
316.507	178.31
316.973	168.31
317.439	168.31
317.905	191.31
318.371	201.31
318.837	183.31
319.303	187.31
319.769	164.31
320.235	178.31
320.701	171.31
321.167	193.31
321.633	202.31
322.099	194.31
322.564	199.31
323.03	200.31
323.496	194.31
323.962	211.31
324.427	203.31
324.893	209.31
325.359	183.31
325.824	188.31
326.29	197.31
326.755	188.31
327.221	192.31
327.686	201.31
328.152	197.31
328.617	192.31
329.083	202.31
329.548	202.31
330.014	209.31
330.479	200.31
330.944	201.31
331.41	210.31
331.875	203.31
332.34	218.31
332.805	198.31
333.271	204.31
333.736	204.31
334.201	213.31
334.666	216.31
335.131	204.31
335.596	207.31
336.061	201.31
336.526	219.31
336.991	208.31
337.456	215.31
337.921	216.31
338.386	223.31
338.851	213.31
339.316	208.31
339.781	201.31
340.246	212.31
340.711	220.31
341.175	208.31
341.64	257.31
342.105	236.31
342.569	239.31
343.034	243.31
343.499	236.31
343.963	260.31
344.428	268.31
344.893	233.31
345.357	242.31
345.822	247.31
346.286	253.31
346.751	251.31
347.215	249.31
347.679	263.31
348.144	274.31
348.608	285.31
349.073	263.31
349.537	267.31
350.001	288.31
350.465	283.31
350.93	302.31
351.394	262.31
351.858	279.31
352.322	276.31
352.786	269.31
353.25	278.31
353.715	281.31
354.179	271.31
354.643	319.31
355.107	314.31
355.571	327.31
356.035	308.31
356.498	267.31
356.962	285.31
357.426	322.31
357.89	302.31
358.354	305.31
358.818	300.31
359.281	294.31
359.745	307.31
360.209	312.31
360.673	319.31
361.136	312.31
361.6	301.31
362.064	293.31
362.527	293.31
362.991	291.31
363.454	312.31
363.918	304.31
364.381	304.31
364.845	311.31
365.308	327.31
365.772	313.31
366.235	305.31
366.698	331.31
367.162	311.31
367.625	319.31
368.088	339.31
368.552	336.31
369.015	318.31
369.478	344.31
369.941	332.31
370.404	339.31
370.867	317.31
371.331	332.31
371.794	355.31
372.257	345.31
372.72	348.31
373.183	354.31
373.646	319.31
374.109	346.31
374.572	351.31
375.035	350.31
375.497	357.31
375.96	350.31
376.423	364.31
376.886	383.31
377.349	383.31
377.811	384.31
378.274	353.31
378.737	361.31
379.199	364.31
379.662	355.31
380.125	379.31
380.587	389.31
381.05	411.31
381.512	378.31
381.975	386.31
382.437	401.31
382.9	393.31
383.362	400.31
383.825	425.31
384.287	419.31
384.75	424.31
385.212	365.31
385.674	399.31
386.136	377.31
386.599	428.31
387.061	421.31
387.523	415.31
387.985	394.31
388.447	426.31
388.91	392.31
389.372	438.31
389.834	431.31
390.296	427.31
390.758	425.31
391.22	410.31
391.682	413.31
392.144	421.31
392.606	437.31
393.068	421.31
393.529	430.31
393.991	454.31
394.453	431.31
394.915	407.31
395.377	436.31
395.838	439.31
396.3	441.31
396.762	430.31
397.224	429.31
397.685	459.31
398.147	438.31
398.608	462.31
399.07	450.31
399.531	474.31
399.993	448.31
400.454	490.31
400.916	466.31
401.377	485.31
401.839	477.31
402.3	503.31
402.762	513.31
403.223	535.31
403.684	553.31
404.145	489.31
404.607	496.31
405.068	495.31
405.529	503.31
405.99	500.31
406.451	499.31
406.913	508.31
407.374	505.31
407.835	500.31
408.296	500.31
408.757	509.31
409.218	541.31
409.679	569.31
410.14	514.31
410.601	534.31
411.062	568.31
411.522	569.31
411.983	565.31
412.444	595.31
412.905	571.31
413.366	621.31
413.826	645.31
414.287	730.31
414.748	866.31
415.208	876.31
415.669	763.31
416.13	680.31
416.59	697.31
417.051	678.31
417.511	718.31
417.972	757.31
418.432	817.31
418.893	932.31
419.353	876.31
419.814	661.31
420.274	602.31
420.734	594.31
421.195	637.31
421.655	617.31
422.115	619.31
422.576	625.31
423.036	648.31
423.496	671.31
423.956	672.31
424.416	702.31
424.876	804.31
425.336	785.31
425.797	779.31
426.257	747.31
426.717	698.31
427.177	658.31
427.637	643.31
428.097	648.31
428.556	682.31
429.016	704.31
429.476	715.31
429.936	673.31
430.396	652.31
430.856	662.31
431.315	684.31
431.775	697.31
432.235	765.31
432.694	778.31
433.154	733.31
433.614	715.31
434.073	684.31
434.533	641.31
434.993	624.31
435.452	660.31
435.912	644.31
436.371	657.31
436.83	667.31
437.29	633.31
437.749	656.31
438.209	666.31
438.668	667.31
439.127	687.31
439.587	669.31
440.046	653.31
440.505	688.31
440.964	680.31
441.424	730.31
441.883	727.31
442.342	718.31
442.801	733.31
443.26	685.31
443.719	686.31
444.178	690.31
444.637	715.31
445.096	710.31
445.555	725.31
446.014	726.31
446.473	695.31
446.932	708.31
447.391	707.31
447.849	732.31
448.308	705.31
448.767	719.31
449.226	746.31
449.685	738.31
450.143	797.31
450.602	802.31
451.061	728.31
451.519	757.31
451.978	728.31
452.436	715.31
452.895	731.31
453.353	709.31
453.812	716.31
454.27	721.31
454.729	733.31
455.187	743.31
455.646	726.31
456.104	737.31
456.562	727.31
457.021	750.31
457.479	724.31
457.937	750.31
458.395	735.31
458.854	749.31
459.312	745.31
459.77	741.31
460.228	777.31
460.686	763.31
461.144	765.31
461.602	783.31
462.06	783.31
462.518	783.31
462.976	763.31
463.434	819.31
463.892	803.31
464.35	835.31
464.808	834.31
465.266	837.31
465.724	856.31
466.181	871.31
466.639	857.31
467.097	872.31
467.555	890.31
468.012	887.31
468.47	914.31
468.928	933.31
469.385	923.31
469.843	957.31
470.3	945.31
470.758	983.31
471.215	969.31
471.673	1023.31
472.13	1030.31
472.588	1024.31
473.045	1010.31
473.503	1049.31
473.96	1092.31
474.417	1089.31
474.875	1135.31
475.332	1164.31
475.789	1175.31
476.246	1170.31
476.704	1163.31
477.161	1181.31
477.618	1207.31
478.075	1239.31
478.532	1299.31
478.989	1266.31
479.446	1373.31
479.903	1351.31
480.36	1355.31
480.817	1344.31
481.274	1400.31
481.731	1413.31
482.188	1417.31
482.645	1437.31
483.102	1473.31
483.558	1568.31
484.015	1553.31
484.472	1547.31
484.929	1534.31
485.385	1529.31
485.842	1551.31
486.299	1550.31
486.755	1584.31
487.212	1563.31
487.668	1495.31
488.125	1490.31
488.582	1495.31
489.038	1490.31
489.494	1482.31
489.951	1505.31
490.407	1513.31
490.864	1572.31
491.32	1558.31
491.776	1533.31
492.233	1549.31
492.689	1522.31
493.145	1531.31
493.602	1551.31
494.058	1559.31
494.514	1545.31
494.97	1586.31
495.426	1591.31
495.882	1603.31
496.338	1613.31
496.794	1618.31
497.251	1576.31
497.707	1649.31
498.163	1695.31
498.618	1645.31
499.074	1666.31
499.53	1654.31
499.986	1675.31
500.442	1673.31
500.898	1673.31
501.354	1693.31
501.809	1676.31
502.265	1692.31
502.721	1709.31
503.177	1695.31
503.632	1695.31
504.088	1674.31
504.543	1742.31
504.999	1725.31
505.455	1769.31
505.91	1714.31
506.366	1765.31
506.821	1792.31
507.277	1749.31
507.732	1785.31
508.187	1761.31
508.643	1762.31
509.098	1770.31
509.553	1778.31
510.009	1775.31
510.464	1835.31
510.919	1845.31
511.375	1890.31
511.83	1903.31
512.285	1929.31
512.74	1997.31
513.195	2012.31
513.65	2022.31
514.105	2060.31
514.56	2113.31
515.015	2117.31
515.47	2160.31
515.925	2137.31
516.38	2097.31
516.835	2135.31
517.29	2117.31
517.745	2105.31
518.2	2067.31
518.655	2026.31
519.109	2027.31
519.564	2013.31
520.019	1985.31
520.474	1933.31
520.928	1913.31
521.383	1871.31
521.838	1960.31
522.292	1899.31
522.747	1895.31
523.201	1864.31
523.656	1866.31
524.11	1836.31
524.565	1819.31
525.019	1871.31
525.474	1871.31
525.928	1795.31
526.382	1835.31
526.837	1826.31
527.291	1887.31
527.745	1826.31
528.2	1801.31
528.654	1804.31
529.108	1798.31
529.562	1844.31
530.016	1826.31
530.47	1838.31
530.925	1832.31
531.379	1853.31
531.833	1841.31
532.287	1817.31
532.741	1825.31
533.195	1851.31
533.649	1847.31
534.103	1812.31
534.556	1849.31
535.01	1811.31
535.464	1823.31
535.918	1829.31
536.372	1836.31
536.826	1822.31
537.279	1813.31
537.733	1854.31
538.187	1817.31
538.64	1836.31
539.094	1859.31
539.548	1924.31
540.001	1869.31
540.455	1878.31
540.908	1917.31
541.362	1916.31
541.815	1931.31
542.269	1962.31
542.722	1988.31
543.175	1991.31
543.629	1999.31
544.082	1997.31
544.536	2078.31
544.989	2051.31
545.442	2057.31
545.895	2037.31
546.349	2056.31
546.802	2062.31
547.255	2081.31
547.708	2058.31
548.161	2091.31
548.614	2119.31
549.067	2075.31
549.52	2062.31
549.973	2067.31
550.426	2076.31
550.879	2011.31
551.332	2049.31
551.785	2049.31
552.238	2067.31
552.691	2095.31
553.144	2063.31
553.596	2104.31
554.049	2181.31
554.502	2283.31
554.955	2321.31
555.407	2347.31
555.86	2244.31
556.313	2263.31
556.765	2200.31
557.218	2233.31
557.67	2197.31
558.123	2203.31
558.576	2212.31
559.028	2146.31
559.48	2153.31
559.933	2155.31
560.385	2103.31
560.838	2046.31
561.29	2023.31
561.742	1951.31
562.195	1908.31
562.647	1904.31
563.099	1903.31
563.551	1906.31
564.004	1956.31
564.456	1913.31
564.908	1868.31
565.36	1840.31
565.812	1808.31
566.264	1801.31
566.716	1779.31
567.168	1727.31
567.62	1745.31
568.072	1705.31
568.524	1728.31
568.976	1695.31
569.428	1679.31
569.88	1640.31
570.332	1657.31
570.784	1677.31
571.235	1709.31
571.687	1718.31
572.139	1705.31
572.59	1720.31
573.042	1725.31
573.494	1745.31
573.945	1720.31
574.397	1661.31
574.849	1678.31
575.3	1667.31
575.752	1628.31
576.203	1643.31
576.655	1651.31
577.106	1610.31
577.557	1602.31
578.009	1596.31
578.46	1612.31
578.912	1590.31
579.363	1578.31
579.814	1574.31
580.265	1624.31
580.717	1635.31
581.168	1576.31
581.619	1553.31
582.07	1579.31
582.521	1582.31
582.972	1575.31
583.423	1621.31
583.875	1626.31
584.326	1639.31
584.777	1641.31
585.227	1681.31
585.678	1693.31
586.129	1679.31
586.58	1736.31
587.031	1742.31
587.482	1801.31
587.933	1838.31
588.384	1841.31
588.834	1819.31
589.285	1842.31
589.736	1773.31
590.186	1792.31
590.637	1837.31
591.088	1804.31
591.538	1737.31
591.989	1678.31
592.439	1717.31
592.89	1678.31
593.34	1642.31
593.791	1629.31
594.241	1599.31
594.692	1632.31
595.142	1648.31
595.593	1607.31
596.043	1605.31
596.493	1623.31
596.943	1628.31
597.394	1691.31
597.844	1672.31
598.294	1749.31
598.744	1769.31
599.195	1864.31
599.645	1987.31
600.095	2063.31
600.545	2239.31
600.995	2308.31
601.445	2427.31
601.895	2513.31
602.345	2683.31
602.795	2614.31
603.245	2463.31
603.695	2342.31
604.145	2241.31
604.594	2075.31
605.044	2009.31
605.494	1845.31
605.944	1717.31
606.393	1704.31
606.843	1673.31
607.293	1649.31
607.743	1627.31
608.192	1657.31
608.642	1650.31
609.091	1703.31
609.541	1676.31
609.99	1678.31
610.44	1683.31
610.889	1627.31
611.339	1579.31
611.788	1554.31
612.238	1579.31
612.687	1567.31
613.136	1584.31
613.586	1593.31
614.035	1599.31
614.484	1638.31
614.933	1579.31
615.383	1559.31
615.832	1539.31
616.281	1561.31
616.73	1504.31
617.179	1511.31
617.628	1473.31
618.077	1411.31
618.526	1379.31
618.975	1417.31
619.424	1396.31
619.873	1386.31
620.322	1347.31
620.771	1356.31
621.22	1372.31
621.669	1328.31
622.118	1327.31
622.567	1279.31
623.015	1243.31
623.464	1242.31
623.913	1211.31
624.361	1247.31
624.81	1244.31
625.259	1217.31
625.707	1236.31
626.156	1243.31
626.604	1275.31
627.053	1305.31
627.501	1309.31
627.95	1296.31
628.398	1287.31
628.847	1262.31
629.295	1255.31
629.744	1273.31
630.192	1263.31
630.64	1209.31
631.089	1190.31
631.537	1168.31
631.985	1151.31
632.433	1142.31
632.881	1160.31
633.33	1174.31
633.778	1163.31
634.226	1146.31
634.674	1175.31
635.122	1151.31
635.57	1165.31
636.018	1185.31
636.466	1180.31
636.914	1171.31
637.362	1195.31
637.81	1249.31
638.258	1242.31
638.705	1260.31
639.153	1285.31
639.601	1333.31
640.049	1360.31
640.497	1385.31
640.944	1413.31
641.392	1375.31
641.84	1263.31
642.287	1173.31
642.735	1141.31
643.182	1130.31
643.63	1095.31
644.078	1087.31
644.525	1108.31
644.973	1091.31
645.42	1118.31
645.867	1147.31
646.315	1127.31
646.762	1126.31
647.21	1136.31
647.657	1111.31
648.104	1089.31
648.551	1088.31
648.999	1065.31
649.446	1059.31
649.893	1069.31
650.34	1065.31
650.787	1083.31
651.234	1138.31
651.682	1181.31
652.129	1300.31
652.576	1444.31
653.023	1679.31
653.47	1844.31
653.917	1921.31
654.363	1973.31
654.81	2018.31
655.257	2142.31
655.704	1822.31
656.151	1398.31
656.598	1259.31
657.044	1107.31
657.491	1070.31
657.938	1079.31
658.385	1029.31
658.831	1041.31
659.278	1017.31
659.724	1016.31
660.171	1013.31
660.618	968.31
661.064	959.31
661.511	968.31
661.957	978.31
662.404	973.31
662.85	982.31
663.296	995.31
663.743	983.31
664.189	987.31
664.635	1022.31
665.082	1007.31
665.528	991.31
665.974	973.31
666.42	950.31
666.867	973.31
667.313	944.31
667.759	915.31
668.205	902.31
668.651	918.31
669.097	957.31
669.543	934.31
669.989	942.31
670.435	933.31
670.881	915.31
671.327	952.31
671.773	1021.31
672.219	1151.31
672.665	1230.31
673.11	1280.31
673.556	1291.31
674.002	1309.31
674.448	1409.31
674.893	1212.31
675.339	1044.31
675.785	931.31
676.23	929.31
676.676	851.31
677.122	816.31
677.567	822.31
678.013	799.31
678.458	785.31
678.904	800.31
679.349	780.31
679.794	773.31
680.24	764.31
680.685	797.31
681.131	809.31
681.576	795.31
682.021	803.31
682.466	799.31
682.912	794.31
683.357	820.31
683.802	887.31
684.247	989.31
684.692	1078.31
685.137	1112.31
685.583	1117.31
686.028	1180.31
686.473	1153.31
686.918	1015.31
687.363	913.31
687.807	868.31
688.252	830.31
688.697	781.31
689.142	747.31
689.587	785.31
690.032	780.31
690.477	809.31
690.921	831.31
691.366	871.31
691.811	934.31
692.255	949.31
692.7	1138.31
693.145	1497.31
693.589	2267.31
694.034	3037.31
694.478	3426.31
694.923	3149.31
695.367	3933.31
695.812	3503.31
696.256	1371.31
696.701	867.31
697.145	770.31
697.59	735.31
698.034	756.31
698.478	738.31
698.922	716.31
699.367	756.31
699.811	798.31
700.255	853.31
700.699	949.31
701.143	985.31
701.588	1075.31
702.032	1136.31
702.476	1151.31
702.92	1176.31
703.364	1355.31
703.808	2015.31
704.252	2868.31
704.696	3272.31
705.14	3026.31
705.584	3869.31
706.027	3093.31
706.471	1392.31
706.915	936.31
707.359	785.31
707.803	716.31
708.246	711.31
708.69	724.31
709.134	700.31
709.577	711.31
710.021	712.31
710.465	721.31
710.908	688.31
711.352	725.31
711.795	768.31
712.239	841.31
712.682	931.31
713.126	869.31
713.569	915.31
714.012	892.31
714.456	704.31
714.899	649.31
715.342	663.31
715.786	661.31
716.229	601.31
716.672	601.31
717.115	569.31
717.558	613.31
718.002	590.31
718.445	631.31
718.888	661.31
719.331	700.31
719.774	711.31
720.217	679.31
720.66	684.31
721.103	625.31
721.546	608.31
721.989	595.31
722.432	556.31
722.874	551.31
723.317	547.31
723.76	596.31
724.203	667.31
724.645	909.31
725.088	1143.31
725.531	1193.31
725.974	1149.31
726.416	1243.31
726.859	806.31
727.301	607.31
727.744	560.31
728.187	567.31
728.629	583.31
729.071	592.31
729.514	634.31
729.956	643.31
730.399	655.31
730.841	677.31
731.283	678.31
731.726	656.31
732.168	642.31
732.61	686.31
733.053	717.31
733.495	770.31
733.937	823.31
734.379	939.31
734.821	1134.31
735.263	1594.31
735.705	2786.31
736.148	4743.31
736.59	5481.31
737.032	5223.31
737.474	5499.31
737.916	2492.31
738.357	1180.31
738.799	823.31
739.241	747.31
739.683	705.31
740.125	719.31
740.567	712.31
741.008	769.31
741.45	795.31
741.892	820.31
742.334	867.31
