Data from 20170802-ORNL-NYSim-Air_HRD10391_10-36-22-594.txt Node
Date: Wed Aug 02 10:36:22 EDT 2017
User: Ender
Spectrometer: HR+D1039
Trigger mode: 0
Integration Time (sec): 3.750000E-3
Scans to average: 1
Electric dark correction enabled: true
Nonlinearity correction enabled: false
Boxcar width: 0
XAxis mode: Wavelengths
Number of Pixels in Spectrum: 2048
>>>>>Begin Spectral Data<<<<<
187.836	9.62
188.309	9.62
188.782	9.62
189.255	8.62
189.728	-16.38
190.201	-6.38
190.674	-7.38
191.147	-7.38
191.619	-9.38
192.092	0.62
192.565	-5.38
193.038	-6.38
193.511	-2.38
193.984	1.62
194.456	-8.38
194.929	25.62
195.402	16.62
195.874	6.62
196.347	9.62
196.82	30.62
197.292	22.62
197.765	29.62
198.237	28.62
198.71	29.62
199.182	31.62
199.655	36.62
200.127	55.62
200.6	40.62
201.072	54.62
201.544	58.62
202.017	68.62
202.489	50.62
202.961	52.62
203.433	74.62
203.906	69.62
204.378	72.62
204.85	63.62
205.322	73.62
205.794	62.62
206.266	79.62
206.739	98.62
207.211	94.62
207.683	80.62
208.155	72.62
208.627	78.62
209.099	87.62
209.57	74.62
210.042	90.62
210.514	86.62
210.986	78.62
211.458	71.62
211.93	96.62
212.402	96.62
212.873	86.62
213.345	86.62
213.817	91.62
214.288	88.62
214.76	68.62
215.232	83.62
215.703	69.62
216.175	75.62
216.646	83.62
217.118	75.62
217.589	71.62
218.061	68.62
218.532	59.62
219.004	77.62
219.475	73.62
219.946	90.62
220.418	77.62
220.889	70.62
221.36	78.62
221.832	84.62
222.303	63.62
222.774	83.62
223.245	85.62
223.717	67.62
224.188	75.62
224.659	69.62
225.13	67.62
225.601	78.62
226.072	80.62
226.543	59.62
227.014	62.62
227.485	86.62
227.956	60.62
228.427	72.62
228.898	78.62
229.369	86.62
229.839	74.62
230.31	78.62
230.781	84.62
231.252	72.62
231.722	97.62
232.193	76.62
232.664	74.62
233.135	87.62
233.605	84.62
234.076	93.62
234.546	83.62
235.017	97.62
235.487	88.62
235.958	96.62
236.428	81.62
236.899	90.62
237.369	87.62
237.84	81.62
238.31	82.62
238.78	79.62
239.251	76.62
239.721	90.62
240.191	64.62
240.662	79.62
241.132	81.62
241.602	93.62
242.072	96.62
242.542	86.62
243.013	93.62
243.483	88.62
243.953	90.62
244.423	92.62
244.893	75.62
245.363	87.62
245.833	82.62
246.303	99.62
246.773	90.62
247.243	97.62
247.712	90.62
248.182	94.62
248.652	95.62
249.122	106.62
249.592	82.62
250.061	94.62
250.531	101.62
251.001	89.62
251.471	88.62
251.94	87.62
252.41	81.62
252.879	91.62
253.349	112.62
253.818	98.62
254.288	97.62
254.757	100.62
255.227	92.62
255.696	95.62
256.166	86.62
256.635	90.62
257.105	94.62
257.574	86.62
258.043	87.62
258.513	94.62
258.982	100.62
259.451	98.62
259.92	91.62
260.389	108.62
260.859	121.62
261.328	97.62
261.797	95.62
262.266	93.62
262.735	99.62
263.204	99.62
263.673	99.62
264.142	94.62
264.611	100.62
265.08	101.62
265.549	102.62
266.018	118.62
266.487	99.62
266.955	108.62
267.424	110.62
267.893	123.62
268.362	123.62
268.83	107.62
269.299	103.62
269.768	104.62
270.236	109.62
270.705	113.62
271.174	107.62
271.642	96.62
272.111	102.62
272.579	102.62
273.048	102.62
273.516	110.62
273.985	108.62
274.453	114.62
274.922	128.62
275.39	121.62
275.858	118.62
276.327	99.62
276.795	120.62
277.263	106.62
277.731	118.62
278.2	114.62
278.668	105.62
279.136	110.62
279.604	124.62
280.072	118.62
280.54	113.62
281.008	115.62
281.477	118.62
281.945	108.62
282.413	114.62
282.881	117.62
283.348	118.62
283.816	125.62
284.284	132.62
284.752	112.62
285.22	127.62
285.688	120.62
286.156	112.62
286.623	109.62
287.091	120.62
287.559	128.62
288.026	136.62
288.494	121.62
288.962	121.62
289.429	116.62
289.897	124.62
290.364	129.62
290.832	132.62
291.3	131.62
291.767	132.62
292.234	133.62
292.702	143.62
293.169	136.62
293.637	124.62
294.104	146.62
294.571	122.62
295.039	116.62
295.506	123.62
295.973	135.62
296.44	123.62
296.908	127.62
297.375	133.62
297.842	131.62
298.309	120.62
298.776	121.62
299.243	135.62
299.71	128.62
300.177	149.62
300.644	143.62
301.111	148.62
301.578	143.62
302.045	139.62
302.512	139.62
302.979	136.62
303.446	126.62
303.913	161.62
304.379	144.62
304.846	160.62
305.313	164.62
305.78	171.62
306.246	165.62
306.713	139.62
307.18	154.62
307.646	139.62
308.113	150.62
308.579	164.62
309.046	169.62
309.512	163.62
309.979	155.62
310.445	154.62
310.912	155.62
311.378	163.62
311.845	162.62
312.311	164.62
312.777	152.62
313.244	177.62
313.71	177.62
314.176	153.62
314.642	172.62
315.109	172.62
315.575	146.62
316.041	162.62
316.507	161.62
316.973	166.62
317.439	151.62
317.905	170.62
318.371	170.62
318.837	179.62
319.303	179.62
319.769	179.62
320.235	165.62
320.701	192.62
321.167	186.62
321.633	166.62
322.099	174.62
322.564	172.62
323.03	160.62
323.496	175.62
323.962	186.62
324.427	189.62
324.893	185.62
325.359	200.62
325.824	191.62
326.29	182.62
326.755	178.62
327.221	184.62
327.686	172.62
328.152	189.62
328.617	200.62
329.083	204.62
329.548	195.62
330.014	196.62
330.479	197.62
330.944	179.62
331.41	198.62
331.875	199.62
332.34	205.62
332.805	226.62
333.271	204.62
333.736	179.62
334.201	210.62
334.666	219.62
335.131	213.62
335.596	194.62
336.061	213.62
336.526	210.62
336.991	217.62
337.456	197.62
337.921	185.62
338.386	178.62
338.851	206.62
339.316	213.62
339.781	196.62
340.246	221.62
340.711	212.62
341.175	211.62
341.64	205.62
342.105	221.62
342.569	201.62
343.034	257.62
343.499	229.62
343.963	230.62
344.428	241.62
344.893	231.62
345.357	260.62
345.822	242.62
346.286	245.62
346.751	224.62
347.215	241.62
347.679	229.62
348.144	233.62
348.608	276.62
349.073	256.62
349.537	286.62
350.001	264.62
350.465	280.62
350.93	254.62
351.394	258.62
351.858	268.62
352.322	270.62
352.786	263.62
353.25	270.62
353.715	282.62
354.179	274.62
354.643	279.62
355.107	297.62
355.571	279.62
356.035	272.62
356.498	286.62
356.962	286.62
357.426	303.62
357.89	290.62
358.354	284.62
358.818	255.62
359.281	267.62
359.745	270.62
360.209	282.62
360.673	275.62
361.136	275.62
361.6	270.62
362.064	293.62
362.527	309.62
362.991	294.62
363.454	292.62
363.918	306.62
364.381	293.62
364.845	295.62
365.308	307.62
365.772	306.62
366.235	298.62
366.698	299.62
367.162	296.62
367.625	314.62
368.088	306.62
368.552	318.62
369.015	307.62
369.478	320.62
369.941	315.62
370.404	310.62
370.867	306.62
371.331	296.62
371.794	333.62
372.257	313.62
372.72	318.62
373.183	306.62
373.646	335.62
374.109	336.62
374.572	331.62
375.035	330.62
375.497	343.62
375.96	344.62
376.423	354.62
376.886	357.62
377.349	359.62
377.811	371.62
378.274	355.62
378.737	334.62
379.199	360.62
379.662	344.62
380.125	388.62
380.587	346.62
381.05	345.62
381.512	364.62
381.975	362.62
382.437	385.62
382.9	381.62
383.362	385.62
383.825	386.62
384.287	367.62
384.75	404.62
385.212	387.62
385.674	394.62
386.136	394.62
386.599	418.62
387.061	397.62
387.523	399.62
387.985	402.62
388.447	386.62
388.91	400.62
389.372	395.62
389.834	409.62
390.296	395.62
390.758	403.62
391.22	393.62
391.682	395.62
392.144	399.62
392.606	410.62
393.068	418.62
393.529	448.62
393.991	471.62
394.453	417.62
394.915	438.62
395.377	424.62
395.838	413.62
396.3	429.62
396.762	427.62
397.224	422.62
397.685	429.62
398.147	436.62
398.608	424.62
399.07	458.62
399.531	428.62
399.993	444.62
400.454	444.62
400.916	443.62
401.377	442.62
401.839	483.62
402.3	464.62
402.762	476.62
403.223	506.62
403.684	531.62
404.145	479.62
404.607	491.62
405.068	467.62
405.529	460.62
405.99	488.62
406.451	478.62
406.913	476.62
407.374	450.62
407.835	486.62
408.296	491.62
408.757	502.62
409.218	508.62
409.679	530.62
410.14	512.62
410.601	520.62
411.062	544.62
411.522	540.62
411.983	565.62
412.444	572.62
412.905	576.62
413.366	603.62
413.826	645.62
414.287	689.62
414.748	854.62
415.208	853.62
415.669	697.62
416.13	653.62
416.59	645.62
417.051	680.62
417.511	655.62
417.972	738.62
418.432	799.62
418.893	885.62
419.353	857.62
419.814	668.62
420.274	594.62
420.734	573.62
421.195	592.62
421.655	577.62
422.115	589.62
422.576	591.62
423.036	617.62
423.496	641.62
423.956	644.62
424.416	661.62
424.876	772.62
425.336	748.62
425.797	714.62
426.257	704.62
426.717	664.62
427.177	606.62
427.637	613.62
428.097	620.62
428.556	632.62
429.016	683.62
429.476	646.62
429.936	654.62
430.396	622.62
430.856	659.62
431.315	656.62
431.775	672.62
432.235	732.62
432.694	768.62
433.154	711.62
433.614	685.62
434.073	667.62
434.533	640.62
434.993	614.62
435.452	621.62
435.912	628.62
436.371	650.62
436.83	641.62
437.29	641.62
437.749	623.62
438.209	649.62
438.668	662.62
439.127	667.62
439.587	636.62
440.046	660.62
440.505	658.62
440.964	659.62
441.424	691.62
441.883	691.62
442.342	691.62
442.801	681.62
443.26	654.62
443.719	663.62
444.178	671.62
444.637	682.62
445.096	664.62
445.555	709.62
446.014	688.62
446.473	688.62
446.932	670.62
447.391	705.62
447.849	718.62
448.308	681.62
448.767	702.62
449.226	718.62
449.685	717.62
450.143	755.62
450.602	734.62
451.061	690.62
451.519	724.62
451.978	740.62
452.436	744.62
452.895	706.62
453.353	710.62
453.812	696.62
454.27	714.62
454.729	699.62
455.187	682.62
455.646	715.62
456.104	700.62
456.562	730.62
457.021	745.62
457.479	701.62
457.937	708.62
458.395	767.62
458.854	736.62
459.312	715.62
459.77	744.62
460.228	738.62
460.686	752.62
461.144	753.62
461.602	766.62
462.06	729.62
462.518	768.62
462.976	767.62
463.434	776.62
463.892	772.62
464.35	774.62
464.808	776.62
465.266	810.62
465.724	826.62
466.181	846.62
466.639	810.62
467.097	856.62
467.555	872.62
468.012	872.62
468.47	872.62
468.928	921.62
469.385	899.62
469.843	912.62
470.3	923.62
470.758	925.62
471.215	955.62
471.673	962.62
472.13	997.62
472.588	1005.62
473.045	1027.62
473.503	1009.62
473.96	1062.62
474.417	1045.62
474.875	1082.62
475.332	1107.62
475.789	1096.62
476.246	1160.62
476.704	1163.62
477.161	1168.62
477.618	1158.62
478.075	1226.62
478.532	1237.62
478.989	1276.62
479.446	1318.62
479.903	1289.62
480.36	1314.62
480.817	1341.62
481.274	1360.62
481.731	1343.62
482.188	1415.62
482.645	1466.62
483.102	1423.62
483.558	1514.62
484.015	1494.62
484.472	1529.62
484.929	1531.62
485.385	1524.62
485.842	1518.62
486.299	1572.62
486.755	1503.62
487.212	1467.62
487.668	1470.62
488.125	1483.62
488.582	1442.62
489.038	1460.62
489.494	1463.62
489.951	1484.62
490.407	1442.62
490.864	1512.62
491.32	1487.62
491.776	1507.62
492.233	1522.62
492.689	1547.62
493.145	1525.62
493.602	1483.62
494.058	1546.62
494.514	1546.62
494.97	1541.62
495.426	1532.62
495.882	1562.62
496.338	1574.62
496.794	1583.62
497.251	1613.62
497.707	1619.62
498.163	1601.62
498.618	1602.62
499.074	1608.62
499.53	1616.62
499.986	1665.62
500.442	1609.62
500.898	1631.62
501.354	1624.62
501.809	1622.62
502.265	1629.62
502.721	1660.62
503.177	1634.62
503.632	1626.62
504.088	1656.62
504.543	1700.62
504.999	1752.62
505.455	1723.62
505.91	1737.62
506.366	1696.62
506.821	1730.62
507.277	1694.62
507.732	1704.62
508.187	1719.62
508.643	1726.62
509.098	1708.62
509.553	1718.62
510.009	1775.62
510.464	1806.62
510.919	1775.62
511.375	1807.62
511.83	1865.62
512.285	1890.62
512.74	1902.62
513.195	1930.62
513.65	1968.62
514.105	2014.62
514.56	2022.62
515.015	2075.62
515.47	2032.62
515.925	2061.62
516.38	2072.62
516.835	2050.62
517.29	2044.62
517.745	2062.62
518.2	2043.62
518.655	1938.62
519.109	1942.62
519.564	1907.62
520.019	1906.62
520.474	1897.62
520.928	1886.62
521.383	1848.62
521.838	1857.62
522.292	1838.62
522.747	1820.62
523.201	1836.62
523.656	1776.62
524.11	1814.62
524.565	1830.62
525.019	1822.62
525.474	1790.62
525.928	1782.62
526.382	1799.62
526.837	1809.62
527.291	1791.62
527.745	1799.62
528.2	1801.62
528.654	1754.62
529.108	1767.62
529.562	1787.62
530.016	1795.62
530.47	1790.62
530.925	1762.62
531.379	1808.62
531.833	1803.62
532.287	1774.62
532.741	1796.62
533.195	1812.62
533.649	1798.62
534.103	1771.62
534.556	1786.62
535.01	1779.62
535.464	1780.62
535.918	1765.62
536.372	1843.62
536.826	1795.62
537.279	1760.62
537.733	1780.62
538.187	1857.62
538.64	1787.62
539.094	1817.62
539.548	1837.62
540.001	1820.62
540.455	1807.62
540.908	1823.62
541.362	1855.62
541.815	1885.62
542.269	1945.62
542.722	1948.62
543.175	1950.62
543.629	1972.62
544.082	1951.62
544.536	2034.62
544.989	1955.62
545.442	2035.62
545.895	2054.62
546.349	2002.62
546.802	1983.62
547.255	2009.62
547.708	2023.62
548.161	2057.62
548.614	2063.62
549.067	2101.62
549.52	2016.62
549.973	2021.62
550.426	2005.62
550.879	1985.62
551.332	2013.62
551.785	1997.62
552.238	2069.62
552.691	2046.62
553.144	2080.62
553.596	2099.62
554.049	2154.62
554.502	2188.62
554.955	2244.62
555.407	2237.62
555.86	2189.62
556.313	2188.62
556.765	2191.62
557.218	2185.62
557.67	2173.62
558.123	2126.62
558.576	2105.62
559.028	2111.62
559.48	2195.62
559.933	2109.62
560.385	2068.62
560.838	2006.62
561.29	1962.62
561.742	1914.62
562.195	1884.62
562.647	1858.62
563.099	1848.62
563.551	1870.62
564.004	1892.62
564.456	1873.62
564.908	1831.62
565.36	1770.62
565.812	1738.62
566.264	1738.62
566.716	1686.62
567.168	1683.62
567.62	1711.62
568.072	1674.62
568.524	1689.62
568.976	1652.62
569.428	1657.62
569.88	1622.62
570.332	1643.62
570.784	1662.62
571.235	1629.62
571.687	1642.62
572.139	1662.62
572.59	1670.62
573.042	1685.62
573.494	1719.62
573.945	1688.62
574.397	1649.62
574.849	1637.62
575.3	1630.62
575.752	1594.62
576.203	1606.62
576.655	1608.62
577.106	1582.62
577.557	1562.62
578.009	1542.62
578.46	1526.62
578.912	1560.62
579.363	1534.62
579.814	1576.62
580.265	1536.62
580.717	1570.62
581.168	1543.62
581.619	1615.62
582.07	1595.62
582.521	1580.62
582.972	1568.62
583.423	1610.62
583.875	1561.62
584.326	1594.62
584.777	1608.62
585.227	1652.62
585.678	1650.62
586.129	1668.62
586.58	1678.62
587.031	1726.62
587.482	1782.62
587.933	1809.62
588.384	1782.62
588.834	1799.62
589.285	1788.62
589.736	1763.62
590.186	1824.62
590.637	1803.62
591.088	1704.62
591.538	1686.62
591.989	1641.62
592.439	1634.62
592.89	1600.62
593.34	1625.62
593.791	1629.62
594.241	1607.62
594.692	1607.62
595.142	1591.62
595.593	1602.62
596.043	1600.62
596.493	1621.62
596.943	1614.62
597.394	1622.62
597.844	1631.62
598.294	1706.62
598.744	1771.62
599.195	1882.62
599.645	1962.62
600.095	2086.62
600.545	2189.62
600.995	2198.62
601.445	2337.62
601.895	2485.62
602.345	2585.62
602.795	2550.62
603.245	2485.62
603.695	2342.62
604.145	2184.62
604.594	2071.62
605.044	1946.62
605.494	1833.62
605.944	1703.62
606.393	1655.62
606.843	1645.62
607.293	1621.62
607.743	1612.62
608.192	1634.62
608.642	1669.62
609.091	1646.62
609.541	1639.62
609.99	1620.62
610.44	1568.62
610.889	1566.62
611.339	1563.62
611.788	1534.62
612.238	1509.62
612.687	1540.62
613.136	1543.62
613.586	1585.62
614.035	1608.62
614.484	1622.62
614.933	1616.62
615.383	1557.62
615.832	1501.62
616.281	1547.62
616.73	1497.62
617.179	1456.62
617.628	1420.62
618.077	1404.62
618.526	1370.62
618.975	1385.62
619.424	1346.62
619.873	1357.62
620.322	1323.62
620.771	1338.62
621.22	1293.62
621.669	1280.62
622.118	1286.62
622.567	1254.62
623.015	1257.62
623.464	1268.62
623.913	1211.62
624.361	1209.62
624.81	1215.62
625.259	1229.62
625.707	1212.62
626.156	1244.62
626.604	1224.62
627.053	1224.62
627.501	1234.62
627.95	1254.62
628.398	1254.62
628.847	1265.62
629.295	1245.62
629.744	1220.62
630.192	1226.62
630.64	1186.62
631.089	1195.62
631.537	1142.62
631.985	1120.62
632.433	1110.62
632.881	1109.62
633.33	1126.62
633.778	1119.62
634.226	1127.62
634.674	1086.62
635.122	1146.62
635.57	1162.62
636.018	1184.62
636.466	1162.62
636.914	1146.62
637.362	1178.62
637.81	1211.62
638.258	1247.62
638.705	1268.62
639.153	1302.62
639.601	1301.62
640.049	1303.62
640.497	1363.62
640.944	1412.62
641.392	1318.62
641.84	1202.62
642.287	1174.62
642.735	1148.62
643.182	1122.62
643.63	1072.62
644.078	1068.62
644.525	1047.62
644.973	1083.62
645.42	1070.62
645.867	1072.62
646.315	1097.62
646.762	1062.62
647.21	1123.62
647.657	1089.62
648.104	1093.62
648.551	1063.62
648.999	1052.62
649.446	1044.62
649.893	1020.62
650.34	1050.62
650.787	1072.62
651.234	1079.62
651.682	1193.62
652.129	1238.62
652.576	1452.62
653.023	1642.62
653.47	1791.62
653.917	1852.62
654.363	1934.62
654.81	2014.62
655.257	2084.62
655.704	1777.62
656.151	1390.62
656.598	1155.62
657.044	1112.62
657.491	1087.62
657.938	1022.62
658.385	1018.62
658.831	1050.62
659.278	1008.62
659.724	996.62
660.171	1001.62
660.618	931.62
661.064	955.62
661.511	951.62
661.957	942.62
662.404	977.62
662.85	991.62
663.296	996.62
663.743	988.62
664.189	1022.62
664.635	990.62
665.082	967.62
665.528	980.62
665.974	982.62
666.42	942.62
666.867	961.62
667.313	912.62
667.759	890.62
668.205	872.62
668.651	894.62
669.097	869.62
669.543	897.62
669.989	898.62
670.435	907.62
670.881	925.62
671.327	964.62
671.773	1038.62
672.219	1113.62
672.665	1197.62
673.11	1240.62
673.556	1270.62
674.002	1346.62
674.448	1365.62
674.893	1206.62
675.339	994.62
675.785	924.62
676.23	856.62
676.676	844.62
677.122	802.62
677.567	788.62
678.013	801.62
678.458	800.62
678.904	798.62
679.349	760.62
679.794	788.62
680.24	777.62
680.685	761.62
681.131	763.62
681.576	734.62
682.021	741.62
682.466	787.62
682.912	794.62
683.357	837.62
683.802	854.62
684.247	902.62
684.692	1006.62
685.137	1083.62
685.583	1126.62
686.028	1155.62
686.473	1133.62
686.918	996.62
687.363	903.62
687.807	824.62
688.252	796.62
688.697	776.62
689.142	764.62
689.587	750.62
690.032	755.62
690.477	768.62
690.921	814.62
691.366	870.62
691.811	897.62
692.255	933.62
692.7	1108.62
693.145	1418.62
693.589	2219.62
694.034	3018.62
694.478	3354.62
694.923	3068.62
695.367	3846.62
695.812	3430.62
696.256	1366.62
696.701	859.62
697.145	803.62
697.59	744.62
698.034	730.62
698.478	716.62
698.922	734.62
699.367	754.62
699.811	741.62
700.255	833.62
700.699	912.62
701.143	1009.62
701.588	1066.62
702.032	1120.62
702.476	1146.62
702.92	1183.62
703.364	1368.62
703.808	2034.62
704.252	2807.62
704.696	3241.62
705.14	2966.62
705.584	3700.62
706.027	2943.62
706.471	1404.62
706.915	886.62
707.359	823.62
707.803	734.62
708.246	710.62
708.69	704.62
709.134	702.62
709.577	704.62
710.021	664.62
710.465	723.62
710.908	660.62
711.352	713.62
711.795	752.62
712.239	825.62
712.682	857.62
713.126	840.62
713.569	927.62
714.012	862.62
714.456	676.62
714.899	674.62
715.342	635.62
715.786	572.62
716.229	594.62
716.672	616.62
717.115	602.62
717.558	596.62
718.002	575.62
718.445	612.62
718.888	632.62
719.331	690.62
719.774	692.62
720.217	639.62
720.66	639.62
721.103	613.62
721.546	574.62
721.989	545.62
722.432	541.62
722.874	574.62
723.317	552.62
723.76	580.62
724.203	656.62
724.645	889.62
725.088	1120.62
725.531	1152.62
725.974	1132.62
726.416	1212.62
726.859	780.62
727.301	596.62
727.744	543.62
728.187	526.62
728.629	564.62
729.071	582.62
729.514	596.62
729.956	607.62
730.399	634.62
730.841	663.62
731.283	642.62
731.726	611.62
732.168	643.62
732.61	634.62
733.053	686.62
733.495	756.62
733.937	828.62
734.379	922.62
734.821	1132.62
735.263	1588.62
735.705	2765.62
736.148	4600.62
736.59	5394.62
737.032	4938.62
737.474	5463.62
737.916	2466.62
738.357	1142.62
738.799	809.62
739.241	705.62
739.683	712.62
740.125	721.62
740.567	708.62
741.008	717.62
741.45	796.62
741.892	814.62
742.334	831.62
742.775	810.62
743.217	833.62
