Data from 20170802-ORNL-NYSim-Air_HRD10391_10-36-21-592.txt Node
Date: Wed Aug 02 10:36:21 EDT 2017
User: Ender
Spectrometer: HR+D1039
Trigger mode: 0
Integration Time (sec): 3.750000E-3
Scans to average: 1
Electric dark correction enabled: true
Nonlinearity correction enabled: false
Boxcar width: 0
XAxis mode: Wavelengths
Number of Pixels in Spectrum: 2048
>>>>>Begin Spectral Data<<<<<
187.836	5.38
188.309	5.38
188.782	5.38
189.255	-5.62
189.728	-2.62
190.201	-14.62
190.674	-10.62
191.147	5.38
191.619	-7.62
192.092	6.38
192.565	-11.62
193.038	-1.62
193.511	-6.62
193.984	14.38
194.456	7.38
194.929	16.38
195.402	0.38
195.874	5.38
196.347	23.38
196.82	19.38
197.292	34.38
197.765	20.38
198.237	33.38
198.71	50.38
199.182	29.38
199.655	52.38
200.127	43.38
200.6	52.38
201.072	46.38
201.544	42.38
202.017	56.38
202.489	67.38
202.961	54.38
203.433	55.38
203.906	71.38
204.378	56.38
204.85	74.38
205.322	77.38
205.794	69.38
206.266	71.38
206.739	69.38
207.211	82.38
207.683	67.38
208.155	81.38
208.627	100.38
209.099	89.38
209.57	78.38
210.042	94.38
210.514	74.38
210.986	83.38
211.458	80.38
211.93	88.38
212.402	87.38
212.873	101.38
213.345	80.38
213.817	82.38
214.288	85.38
214.76	95.38
215.232	81.38
215.703	78.38
216.175	85.38
216.646	68.38
217.118	66.38
217.589	90.38
218.061	75.38
218.532	75.38
219.004	82.38
219.475	82.38
219.946	77.38
220.418	86.38
220.889	83.38
221.36	84.38
221.832	69.38
222.303	89.38
222.774	84.38
223.245	80.38
223.717	76.38
224.188	78.38
224.659	73.38
225.13	73.38
225.601	79.38
226.072	77.38
226.543	70.38
227.014	74.38
227.485	83.38
227.956	74.38
228.427	95.38
228.898	85.38
229.369	79.38
229.839	69.38
230.31	87.38
230.781	90.38
231.252	99.38
231.722	79.38
232.193	84.38
232.664	80.38
233.135	83.38
233.605	94.38
234.076	85.38
234.546	89.38
235.017	66.38
235.487	82.38
235.958	79.38
236.428	94.38
236.899	79.38
237.369	85.38
237.84	84.38
238.31	84.38
238.78	95.38
239.251	95.38
239.721	92.38
240.191	88.38
240.662	97.38
241.132	71.38
241.602	82.38
242.072	87.38
242.542	80.38
243.013	80.38
243.483	87.38
243.953	102.38
244.423	99.38
244.893	86.38
245.363	100.38
245.833	94.38
246.303	98.38
246.773	89.38
247.243	97.38
247.712	98.38
248.182	94.38
248.652	98.38
249.122	95.38
249.592	86.38
250.061	76.38
250.531	88.38
251.001	98.38
251.471	103.38
251.94	108.38
252.41	110.38
252.879	88.38
253.349	92.38
253.818	84.38
254.288	80.38
254.757	85.38
255.227	96.38
255.696	88.38
256.166	90.38
256.635	74.38
257.105	78.38
257.574	86.38
258.043	111.38
258.513	96.38
258.982	95.38
259.451	92.38
259.92	96.38
260.389	100.38
260.859	110.38
261.328	98.38
261.797	97.38
262.266	106.38
262.735	109.38
263.204	104.38
263.673	99.38
264.142	116.38
264.611	112.38
265.08	102.38
265.549	97.38
266.018	100.38
266.487	103.38
266.955	101.38
267.424	110.38
267.893	104.38
268.362	108.38
268.83	100.38
269.299	107.38
269.768	112.38
270.236	86.38
270.705	100.38
271.174	113.38
271.642	98.38
272.111	96.38
272.579	89.38
273.048	115.38
273.516	108.38
273.985	112.38
274.453	116.38
274.922	120.38
275.39	109.38
275.858	113.38
276.327	109.38
276.795	125.38
277.263	113.38
277.731	120.38
278.2	113.38
278.668	104.38
279.136	131.38
279.604	121.38
280.072	122.38
280.54	124.38
281.008	99.38
281.477	114.38
281.945	115.38
282.413	122.38
282.881	132.38
283.348	114.38
283.816	126.38
284.284	118.38
284.752	134.38
285.22	126.38
285.688	117.38
286.156	124.38
286.623	129.38
287.091	133.38
287.559	121.38
288.026	119.38
288.494	134.38
288.962	127.38
289.429	127.38
289.897	134.38
290.364	137.38
290.832	125.38
291.3	135.38
291.767	107.38
292.234	121.38
292.702	146.38
293.169	136.38
293.637	147.38
294.104	138.38
294.571	143.38
295.039	139.38
295.506	157.38
295.973	147.38
296.44	135.38
296.908	139.38
297.375	144.38
297.842	146.38
298.309	144.38
298.776	130.38
299.243	144.38
299.71	143.38
300.177	128.38
300.644	127.38
301.111	126.38
301.578	140.38
302.045	152.38
302.512	143.38
302.979	156.38
303.446	134.38
303.913	149.38
304.379	137.38
304.846	155.38
305.313	153.38
305.78	146.38
306.246	148.38
306.713	145.38
307.18	153.38
307.646	152.38
308.113	142.38
308.579	178.38
309.046	162.38
309.512	156.38
309.979	160.38
310.445	176.38
310.912	153.38
311.378	161.38
311.845	156.38
312.311	190.38
312.777	185.38
313.244	158.38
313.71	159.38
314.176	155.38
314.642	180.38
315.109	189.38
315.575	162.38
316.041	166.38
316.507	177.38
316.973	154.38
317.439	180.38
317.905	166.38
318.371	170.38
318.837	178.38
319.303	188.38
319.769	170.38
320.235	183.38
320.701	174.38
321.167	181.38
321.633	194.38
322.099	178.38
322.564	191.38
323.03	182.38
323.496	191.38
323.962	175.38
324.427	208.38
324.893	182.38
325.359	192.38
325.824	186.38
326.29	186.38
326.755	207.38
327.221	199.38
327.686	185.38
328.152	195.38
328.617	198.38
329.083	196.38
329.548	190.38
330.014	199.38
330.479	182.38
330.944	195.38
331.41	185.38
331.875	209.38
332.34	211.38
332.805	218.38
333.271	205.38
333.736	208.38
334.201	202.38
334.666	226.38
335.131	216.38
335.596	222.38
336.061	225.38
336.526	200.38
336.991	194.38
337.456	216.38
337.921	208.38
338.386	210.38
338.851	196.38
339.316	220.38
339.781	209.38
340.246	225.38
340.711	226.38
341.175	230.38
341.64	233.38
342.105	226.38
342.569	239.38
343.034	230.38
343.499	225.38
343.963	256.38
344.428	240.38
344.893	240.38
345.357	242.38
345.822	240.38
346.286	234.38
346.751	250.38
347.215	252.38
347.679	247.38
348.144	252.38
348.608	250.38
349.073	272.38
349.537	267.38
350.001	256.38
350.465	245.38
350.93	276.38
351.394	246.38
351.858	283.38
352.322	266.38
352.786	265.38
353.25	282.38
353.715	261.38
354.179	296.38
354.643	334.38
355.107	287.38
355.571	285.38
356.035	314.38
356.498	306.38
356.962	300.38
357.426	293.38
357.89	318.38
358.354	301.38
358.818	278.38
359.281	265.38
359.745	296.38
360.209	296.38
360.673	291.38
361.136	303.38
361.6	303.38
362.064	312.38
362.527	310.38
362.991	296.38
363.454	275.38
363.918	280.38
364.381	301.38
364.845	276.38
365.308	279.38
365.772	305.38
366.235	308.38
366.698	318.38
367.162	325.38
367.625	313.38
368.088	302.38
368.552	305.38
369.015	314.38
369.478	319.38
369.941	316.38
370.404	324.38
370.867	320.38
371.331	321.38
371.794	308.38
372.257	332.38
372.72	311.38
373.183	326.38
373.646	328.38
374.109	334.38
374.572	332.38
375.035	333.38
375.497	352.38
375.96	342.38
376.423	341.38
376.886	340.38
377.349	358.38
377.811	361.38
378.274	380.38
378.737	372.38
379.199	376.38
379.662	354.38
380.125	368.38
380.587	374.38
381.05	363.38
381.512	379.38
381.975	395.38
382.437	399.38
382.9	402.38
383.362	383.38
383.825	397.38
384.287	394.38
384.75	394.38
385.212	392.38
385.674	422.38
386.136	416.38
386.599	415.38
387.061	400.38
387.523	410.38
387.985	401.38
388.447	386.38
388.91	383.38
389.372	405.38
389.834	393.38
390.296	444.38
390.758	426.38
391.22	409.38
391.682	406.38
392.144	423.38
392.606	419.38
393.068	423.38
393.529	436.38
393.991	458.38
394.453	476.38
394.915	434.38
395.377	422.38
395.838	431.38
396.3	428.38
396.762	440.38
397.224	418.38
397.685	442.38
398.147	432.38
398.608	449.38
399.07	445.38
399.531	447.38
399.993	451.38
400.454	453.38
400.916	476.38
401.377	482.38
401.839	461.38
402.3	456.38
402.762	474.38
403.223	503.38
403.684	527.38
404.145	500.38
404.607	473.38
405.068	508.38
405.529	459.38
405.99	477.38
406.451	490.38
406.913	487.38
407.374	481.38
407.835	497.38
408.296	497.38
408.757	511.38
409.218	521.38
409.679	503.38
410.14	533.38
410.601	554.38
411.062	544.38
411.522	561.38
411.983	562.38
412.444	545.38
412.905	560.38
413.366	616.38
413.826	625.38
414.287	675.38
414.748	855.38
415.208	844.38
415.669	732.38
416.13	684.38
416.59	689.38
417.051	687.38
417.511	715.38
417.972	768.38
418.432	811.38
418.893	902.38
419.353	854.38
419.814	649.38
420.274	604.38
420.734	614.38
421.195	582.38
421.655	612.38
422.115	626.38
422.576	610.38
423.036	621.38
423.496	662.38
423.956	682.38
424.416	658.38
424.876	773.38
425.336	774.38
425.797	734.38
426.257	720.38
426.717	693.38
427.177	648.38
427.637	641.38
428.097	646.38
428.556	667.38
429.016	740.38
429.476	696.38
429.936	636.38
430.396	649.38
430.856	652.38
431.315	657.38
431.775	701.38
432.235	748.38
432.694	782.38
433.154	691.38
433.614	704.38
434.073	683.38
434.533	634.38
434.993	630.38
435.452	683.38
435.912	638.38
436.371	660.38
436.83	642.38
437.29	645.38
437.749	665.38
438.209	622.38
438.668	636.38
439.127	672.38
439.587	686.38
440.046	672.38
440.505	648.38
440.964	700.38
441.424	719.38
441.883	728.38
442.342	652.38
442.801	692.38
443.26	694.38
443.719	672.38
444.178	670.38
444.637	721.38
445.096	719.38
445.555	702.38
446.014	708.38
446.473	661.38
446.932	705.38
447.391	708.38
447.849	729.38
448.308	738.38
448.767	714.38
449.226	726.38
449.685	745.38
450.143	762.38
450.602	753.38
451.061	697.38
451.519	754.38
451.978	758.38
452.436	727.38
452.895	714.38
453.353	700.38
453.812	723.38
454.27	731.38
454.729	711.38
455.187	719.38
455.646	729.38
456.104	723.38
456.562	742.38
457.021	716.38
457.479	701.38
457.937	721.38
458.395	750.38
458.854	762.38
459.312	743.38
459.77	735.38
460.228	764.38
460.686	764.38
461.144	745.38
461.602	777.38
462.06	770.38
462.518	742.38
462.976	760.38
463.434	788.38
463.892	784.38
464.35	778.38
464.808	820.38
465.266	824.38
465.724	826.38
466.181	838.38
466.639	820.38
467.097	867.38
467.555	882.38
468.012	870.38
468.47	872.38
468.928	931.38
469.385	940.38
469.843	963.38
470.3	953.38
470.758	939.38
471.215	975.38
471.673	949.38
472.13	1000.38
472.588	1030.38
473.045	1019.38
473.503	1014.38
473.96	1048.38
474.417	1078.38
474.875	1099.38
475.332	1137.38
475.789	1144.38
476.246	1148.38
476.704	1167.38
477.161	1194.38
477.618	1174.38
478.075	1207.38
478.532	1264.38
478.989	1273.38
479.446	1316.38
479.903	1346.38
480.36	1307.38
480.817	1340.38
481.274	1333.38
481.731	1383.38
482.188	1376.38
482.645	1447.38
483.102	1447.38
483.558	1524.38
484.015	1544.38
484.472	1582.38
484.929	1532.38
485.385	1548.38
485.842	1497.38
486.299	1585.38
486.755	1586.38
487.212	1526.38
487.668	1471.38
488.125	1469.38
488.582	1451.38
489.038	1480.38
489.494	1514.38
489.951	1518.38
490.407	1477.38
490.864	1483.38
491.32	1498.38
491.776	1489.38
492.233	1536.38
492.689	1551.38
493.145	1485.38
493.602	1481.38
494.058	1552.38
494.514	1561.38
494.97	1588.38
495.426	1566.38
495.882	1570.38
496.338	1537.38
496.794	1588.38
497.251	1599.38
497.707	1624.38
498.163	1622.38
498.618	1661.38
499.074	1579.38
499.53	1640.38
499.986	1643.38
500.442	1670.38
500.898	1644.38
501.354	1686.38
501.809	1654.38
502.265	1648.38
502.721	1656.38
503.177	1677.38
503.632	1694.38
504.088	1701.38
504.543	1687.38
504.999	1737.38
505.455	1724.38
505.91	1763.38
506.366	1747.38
506.821	1722.38
507.277	1700.38
507.732	1718.38
508.187	1730.38
508.643	1707.38
509.098	1732.38
509.553	1739.38
510.009	1801.38
510.464	1766.38
510.919	1858.38
511.375	1854.38
511.83	1845.38
512.285	1915.38
512.74	1940.38
513.195	1964.38
513.65	1986.38
514.105	2019.38
514.56	2014.38
515.015	2054.38
515.47	2092.38
515.925	2070.38
516.38	2093.38
516.835	2078.38
517.29	2083.38
517.745	2062.38
518.2	2002.38
518.655	1997.38
519.109	1980.38
519.564	1899.38
520.019	1965.38
520.474	1915.38
520.928	1868.38
521.383	1862.38
521.838	1849.38
522.292	1882.38
522.747	1823.38
523.201	1800.38
523.656	1864.38
524.11	1850.38
524.565	1796.38
525.019	1790.38
525.474	1807.38
525.928	1827.38
526.382	1792.38
526.837	1816.38
527.291	1832.38
527.745	1853.38
528.2	1813.38
528.654	1722.38
529.108	1798.38
529.562	1806.38
530.016	1774.38
530.47	1785.38
530.925	1802.38
531.379	1786.38
531.833	1815.38
532.287	1832.38
532.741	1797.38
533.195	1836.38
533.649	1798.38
534.103	1817.38
534.556	1783.38
535.01	1814.38
535.464	1774.38
535.918	1836.38
536.372	1791.38
536.826	1842.38
537.279	1788.38
537.733	1818.38
538.187	1830.38
538.64	1798.38
539.094	1810.38
539.548	1826.38
540.001	1882.38
540.455	1857.38
540.908	1875.38
541.362	1876.38
541.815	1890.38
542.269	1992.38
542.722	1961.38
543.175	1985.38
543.629	1938.38
544.082	1979.38
544.536	1997.38
544.989	1960.38
545.442	2027.38
545.895	2001.38
546.349	1993.38
546.802	2030.38
547.255	2015.38
547.708	2035.38
548.161	2066.38
548.614	2088.38
549.067	2050.38
549.52	2100.38
549.973	2080.38
550.426	2056.38
550.879	2031.38
551.332	1965.38
551.785	2012.38
552.238	2071.38
552.691	2088.38
553.144	2088.38
553.596	2133.38
554.049	2150.38
554.502	2211.38
554.955	2268.38
555.407	2280.38
555.86	2259.38
556.313	2192.38
556.765	2206.38
557.218	2186.38
557.67	2155.38
558.123	2132.38
558.576	2108.38
559.028	2123.38
559.48	2178.38
559.933	2161.38
560.385	2075.38
560.838	2020.38
561.29	1977.38
561.742	1964.38
562.195	1904.38
562.647	1889.38
563.099	1880.38
563.551	1880.38
564.004	1892.38
564.456	1926.38
564.908	1831.38
565.36	1836.38
565.812	1782.38
566.264	1762.38
566.716	1718.38
567.168	1660.38
567.62	1713.38
568.072	1720.38
568.524	1670.38
568.976	1678.38
569.428	1646.38
569.88	1634.38
570.332	1687.38
570.784	1646.38
571.235	1690.38
571.687	1689.38
572.139	1670.38
572.59	1661.38
573.042	1688.38
573.494	1756.38
573.945	1709.38
574.397	1626.38
574.849	1630.38
575.3	1670.38
575.752	1633.38
576.203	1590.38
576.655	1574.38
577.106	1562.38
577.557	1576.38
578.009	1566.38
578.46	1550.38
578.912	1505.38
579.363	1555.38
579.814	1534.38
580.265	1575.38
580.717	1542.38
581.168	1524.38
581.619	1560.38
582.07	1600.38
582.521	1575.38
582.972	1543.38
583.423	1549.38
583.875	1584.38
584.326	1585.38
584.777	1607.38
585.227	1613.38
585.678	1710.38
586.129	1693.38
586.58	1694.38
587.031	1712.38
587.482	1782.38
587.933	1836.38
588.384	1828.38
588.834	1811.38
589.285	1797.38
589.736	1774.38
590.186	1742.38
590.637	1827.38
591.088	1728.38
591.538	1711.38
591.989	1652.38
592.439	1680.38
592.89	1656.38
593.34	1657.38
593.791	1632.38
594.241	1604.38
594.692	1589.38
595.142	1584.38
595.593	1588.38
596.043	1604.38
596.493	1632.38
596.943	1634.38
597.394	1626.38
597.844	1659.38
598.294	1712.38
598.744	1742.38
599.195	1882.38
599.645	1964.38
600.095	2048.38
600.545	2176.38
600.995	2281.38
601.445	2385.38
601.895	2515.38
602.345	2592.38
602.795	2585.38
603.245	2446.38
603.695	2360.38
604.145	2192.38
604.594	2068.38
605.044	1929.38
605.494	1828.38
605.944	1738.38
606.393	1687.38
606.843	1657.38
607.293	1645.38
607.743	1638.38
608.192	1620.38
608.642	1695.38
609.091	1606.38
609.541	1659.38
609.99	1662.38
610.44	1638.38
610.889	1615.38
611.339	1558.38
611.788	1522.38
612.238	1613.38
612.687	1549.38
613.136	1567.38
613.586	1588.38
614.035	1552.38
614.484	1595.38
614.933	1599.38
615.383	1582.38
615.832	1551.38
616.281	1520.38
616.73	1493.38
617.179	1439.38
617.628	1439.38
618.077	1426.38
618.526	1356.38
618.975	1358.38
619.424	1336.38
619.873	1376.38
620.322	1342.38
620.771	1344.38
621.22	1335.38
621.669	1232.38
622.118	1270.38
622.567	1262.38
623.015	1249.38
623.464	1236.38
623.913	1218.38
624.361	1233.38
624.81	1254.38
625.259	1224.38
625.707	1241.38
626.156	1236.38
626.604	1261.38
627.053	1234.38
627.501	1244.38
627.95	1222.38
628.398	1262.38
628.847	1262.38
629.295	1242.38
629.744	1224.38
630.192	1236.38
630.64	1208.38
631.089	1153.38
631.537	1150.38
631.985	1132.38
632.433	1134.38
632.881	1137.38
633.33	1120.38
633.778	1132.38
634.226	1152.38
634.674	1164.38
635.122	1169.38
635.57	1170.38
636.018	1199.38
636.466	1204.38
636.914	1164.38
637.362	1198.38
637.81	1187.38
638.258	1227.38
638.705	1251.38
639.153	1298.38
639.601	1322.38
640.049	1311.38
640.497	1350.38
640.944	1392.38
641.392	1318.38
641.84	1224.38
642.287	1185.38
642.735	1133.38
643.182	1102.38
643.63	1069.38
644.078	1078.38
644.525	1083.38
644.973	1062.38
645.42	1123.38
645.867	1080.38
646.315	1086.38
646.762	1108.38
647.21	1078.38
647.657	1099.38
648.104	1101.38
648.551	1057.38
648.999	1074.38
649.446	1032.38
649.893	1056.38
650.34	1041.38
650.787	1060.38
651.234	1102.38
651.682	1193.38
652.129	1263.38
652.576	1450.38
653.023	1652.38
653.47	1830.38
653.917	1882.38
654.363	1906.38
654.81	2011.38
655.257	2135.38
655.704	1835.38
656.151	1358.38
656.598	1148.38
657.044	1102.38
657.491	1063.38
657.938	1034.38
658.385	1036.38
658.831	1040.38
659.278	1000.38
659.724	985.38
660.171	969.38
660.618	949.38
661.064	934.38
661.511	951.38
661.957	945.38
662.404	951.38
662.85	966.38
663.296	955.38
663.743	958.38
664.189	958.38
664.635	966.38
665.082	988.38
665.528	979.38
665.974	946.38
666.42	959.38
666.867	934.38
667.313	916.38
667.759	866.38
668.205	880.38
668.651	851.38
669.097	884.38
669.543	910.38
669.989	910.38
670.435	923.38
670.881	944.38
671.327	944.38
671.773	1037.38
672.219	1098.38
672.665	1202.38
673.11	1231.38
673.556	1289.38
674.002	1328.38
674.448	1398.38
674.893	1188.38
675.339	996.38
675.785	954.38
676.23	896.38
676.676	824.38
677.122	825.38
677.567	800.38
678.013	783.38
678.458	772.38
678.904	779.38
679.349	769.38
679.794	738.38
680.24	782.38
680.685	786.38
681.131	762.38
681.576	792.38
682.021	792.38
682.466	776.38
682.912	786.38
683.357	830.38
683.802	852.38
684.247	950.38
684.692	1051.38
685.137	1086.38
685.583	1099.38
686.028	1142.38
686.473	1142.38
686.918	994.38
687.363	908.38
687.807	831.38
688.252	795.38
688.697	780.38
689.142	740.38
689.587	770.38
690.032	748.38
690.477	803.38
690.921	812.38
691.366	861.38
691.811	898.38
692.255	940.38
692.7	1116.38
693.145	1442.38
693.589	2212.38
694.034	2998.38
694.478	3334.38
694.923	3044.38
695.367	3777.38
695.812	3468.38
696.256	1374.38
696.701	879.38
697.145	776.38
697.59	751.38
698.034	702.38
698.478	729.38
698.922	714.38
699.367	742.38
699.811	781.38
700.255	828.38
700.699	919.38
701.143	1001.38
701.588	1060.38
702.032	1116.38
702.476	1140.38
702.92	1114.38
703.364	1318.38
703.808	1993.38
704.252	2812.38
704.696	3218.38
705.14	2998.38
705.584	3753.38
706.027	3004.38
706.471	1344.38
706.915	935.38
707.359	801.38
707.803	762.38
708.246	708.38
708.69	722.38
709.134	698.38
709.577	691.38
710.021	710.38
710.465	723.38
710.908	680.38
711.352	709.38
711.795	762.38
712.239	838.38
712.682	894.38
713.126	852.38
713.569	916.38
714.012	851.38
714.456	702.38
714.899	676.38
715.342	621.38
715.786	627.38
716.229	565.38
716.672	574.38
717.115	573.38
717.558	590.38
718.002	589.38
718.445	612.38
718.888	662.38
719.331	661.38
719.774	706.38
720.217	669.38
720.66	645.38
721.103	624.38
721.546	578.38
721.989	563.38
722.432	566.38
722.874	567.38
723.317	535.38
723.76	571.38
724.203	642.38
724.645	859.38
725.088	1089.38
725.531	1151.38
725.974	1129.38
726.416	1223.38
726.859	809.38
727.301	594.38
727.744	553.38
728.187	556.38
728.629	575.38
729.071	601.38
729.514	596.38
729.956	645.38
730.399	688.38
730.841	646.38
731.283	634.38
731.726	593.38
732.168	634.38
732.61	629.38
733.053	705.38
733.495	767.38
733.937	827.38
734.379	937.38
734.821	1132.38
735.263	1540.38
735.705	2746.38
736.148	4616.38
736.59	5436.38
737.032	5048.38
737.474	5472.38
737.916	2533.38
738.357	1177.38
738.799	775.38
739.241	720.38
739.683	678.38
740.125	705.38
740.567	711.38
741.008	725.38
741.45	774.38
741.892	811.38
742.334	822.38
742.775	824.38
743.217	832.38
