Data from 20170802-ORNL-NYSim-Air_HRD10391_10-36-07-570.txt Node
Date: Wed Aug 02 10:36:07 EDT 2017
User: Ender
Spectrometer: HR+D1039
Trigger mode: 0
Integration Time (sec): 3.750000E-3
Scans to average: 1
Electric dark correction enabled: true
Nonlinearity correction enabled: false
Boxcar width: 0
XAxis mode: Wavelengths
Number of Pixels in Spectrum: 2048
>>>>>Begin Spectral Data<<<<<
187.836	13.31
188.309	13.31
188.782	13.31
189.255	2.31
189.728	-4.69
190.201	-13.69
190.674	-4.69
191.147	-2.69
191.619	-4.69
192.092	-5.69
192.565	-4.69
193.038	-15.69
193.511	-4.69
193.984	-2.69
194.456	9.31
194.929	9.31
195.402	12.31
195.874	17.31
196.347	27.31
196.82	27.31
197.292	29.31
197.765	48.31
198.237	27.31
198.71	41.31
199.182	23.31
199.655	37.31
200.127	37.31
200.6	56.31
201.072	60.31
201.544	51.31
202.017	50.31
202.489	51.31
202.961	62.31
203.433	73.31
203.906	69.31
204.378	87.31
204.85	91.31
205.322	71.31
205.794	72.31
206.266	78.31
206.739	71.31
207.211	83.31
207.683	72.31
208.155	85.31
208.627	71.31
209.099	87.31
209.57	93.31
210.042	88.31
210.514	81.31
210.986	91.31
211.458	92.31
211.93	84.31
212.402	79.31
212.873	97.31
213.345	87.31
213.817	88.31
214.288	80.31
214.76	79.31
215.232	84.31
215.703	83.31
216.175	103.31
216.646	87.31
217.118	89.31
217.589	83.31
218.061	77.31
218.532	79.31
219.004	78.31
219.475	66.31
219.946	73.31
220.418	75.31
220.889	68.31
221.36	85.31
221.832	57.31
222.303	78.31
222.774	87.31
223.245	71.31
223.717	79.31
224.188	83.31
224.659	79.31
225.13	80.31
225.601	89.31
226.072	84.31
226.543	81.31
227.014	83.31
227.485	75.31
227.956	63.31
228.427	74.31
228.898	84.31
229.369	69.31
229.839	79.31
230.31	71.31
230.781	81.31
231.252	79.31
231.722	75.31
232.193	82.31
232.664	72.31
233.135	68.31
233.605	73.31
234.076	72.31
234.546	81.31
235.017	75.31
235.487	86.31
235.958	76.31
236.428	75.31
236.899	87.31
237.369	75.31
237.84	68.31
238.31	89.31
238.78	104.31
239.251	93.31
239.721	89.31
240.191	99.31
240.662	88.31
241.132	96.31
241.602	97.31
242.072	85.31
242.542	87.31
243.013	91.31
243.483	84.31
243.953	65.31
244.423	92.31
244.893	86.31
245.363	83.31
245.833	98.31
246.303	87.31
246.773	90.31
247.243	89.31
247.712	94.31
248.182	89.31
248.652	69.31
249.122	89.31
249.592	108.31
250.061	86.31
250.531	85.31
251.001	93.31
251.471	89.31
251.94	79.31
252.41	104.31
252.879	88.31
253.349	101.31
253.818	93.31
254.288	79.31
254.757	108.31
255.227	97.31
255.696	95.31
256.166	101.31
256.635	108.31
257.105	90.31
257.574	102.31
258.043	95.31
258.513	107.31
258.982	92.31
259.451	88.31
259.92	95.31
260.389	99.31
260.859	97.31
261.328	110.31
261.797	97.31
262.266	108.31
262.735	96.31
263.204	110.31
263.673	102.31
264.142	104.31
264.611	123.31
265.08	107.31
265.549	111.31
266.018	114.31
266.487	99.31
266.955	112.31
267.424	105.31
267.893	101.31
268.362	95.31
268.83	105.31
269.299	101.31
269.768	111.31
270.236	98.31
270.705	88.31
271.174	101.31
271.642	103.31
272.111	101.31
272.579	83.31
273.048	103.31
273.516	99.31
273.985	127.31
274.453	120.31
274.922	92.31
275.39	108.31
275.858	106.31
276.327	105.31
276.795	104.31
277.263	114.31
277.731	105.31
278.2	117.31
278.668	95.31
279.136	113.31
279.604	114.31
280.072	117.31
280.54	116.31
281.008	118.31
281.477	101.31
281.945	110.31
282.413	126.31
282.881	118.31
283.348	131.31
283.816	124.31
284.284	103.31
284.752	115.31
285.22	121.31
285.688	123.31
286.156	131.31
286.623	123.31
287.091	120.31
287.559	106.31
288.026	123.31
288.494	119.31
288.962	124.31
289.429	117.31
289.897	130.31
290.364	119.31
290.832	110.31
291.3	130.31
291.767	123.31
292.234	135.31
292.702	129.31
293.169	126.31
293.637	137.31
294.104	126.31
294.571	139.31
295.039	128.31
295.506	124.31
295.973	143.31
296.44	127.31
296.908	148.31
297.375	133.31
297.842	143.31
298.309	138.31
298.776	144.31
299.243	120.31
299.71	143.31
300.177	136.31
300.644	144.31
301.111	138.31
301.578	138.31
302.045	145.31
302.512	129.31
302.979	160.31
303.446	147.31
303.913	145.31
304.379	133.31
304.846	161.31
305.313	140.31
305.78	147.31
306.246	142.31
306.713	133.31
307.18	159.31
307.646	158.31
308.113	162.31
308.579	164.31
309.046	155.31
309.512	178.31
309.979	162.31
310.445	177.31
310.912	166.31
311.378	161.31
311.845	161.31
312.311	168.31
312.777	135.31
313.244	155.31
313.71	172.31
314.176	173.31
314.642	177.31
315.109	176.31
315.575	165.31
316.041	169.31
316.507	169.31
316.973	167.31
317.439	167.31
317.905	185.31
318.371	183.31
318.837	164.31
319.303	160.31
319.769	171.31
320.235	158.31
320.701	161.31
321.167	171.31
321.633	180.31
322.099	175.31
322.564	186.31
323.03	182.31
323.496	169.31
323.962	196.31
324.427	179.31
324.893	170.31
325.359	176.31
325.824	196.31
326.29	177.31
326.755	198.31
327.221	174.31
327.686	193.31
328.152	197.31
328.617	191.31
329.083	191.31
329.548	193.31
330.014	190.31
330.479	198.31
330.944	210.31
331.41	217.31
331.875	197.31
332.34	191.31
332.805	194.31
333.271	196.31
333.736	229.31
334.201	198.31
334.666	214.31
335.131	224.31
335.596	221.31
336.061	196.31
336.526	197.31
336.991	203.31
337.456	197.31
337.921	202.31
338.386	219.31
338.851	216.31
339.316	195.31
339.781	192.31
340.246	212.31
340.711	210.31
341.175	239.31
341.64	241.31
342.105	221.31
342.569	233.31
343.034	235.31
343.499	226.31
343.963	224.31
344.428	205.31
344.893	227.31
345.357	215.31
345.822	232.31
346.286	211.31
346.751	234.31
347.215	242.31
347.679	260.31
348.144	265.31
348.608	263.31
349.073	250.31
349.537	267.31
350.001	260.31
350.465	256.31
350.93	262.31
351.394	264.31
351.858	261.31
352.322	255.31
352.786	274.31
353.25	263.31
353.715	268.31
354.179	280.31
354.643	295.31
355.107	301.31
355.571	289.31
356.035	274.31
356.498	285.31
356.962	269.31
357.426	263.31
357.89	273.31
358.354	302.31
358.818	276.31
359.281	267.31
359.745	281.31
360.209	266.31
360.673	275.31
361.136	273.31
361.6	275.31
362.064	289.31
362.527	286.31
362.991	291.31
363.454	285.31
363.918	295.31
364.381	287.31
364.845	297.31
365.308	290.31
365.772	299.31
366.235	309.31
366.698	297.31
367.162	289.31
367.625	320.31
368.088	309.31
368.552	300.31
369.015	310.31
369.478	320.31
369.941	295.31
370.404	300.31
370.867	298.31
371.331	326.31
371.794	309.31
372.257	320.31
372.72	319.31
373.183	320.31
373.646	325.31
374.109	324.31
374.572	333.31
375.035	309.31
375.497	332.31
375.96	316.31
376.423	337.31
376.886	359.31
377.349	329.31
377.811	346.31
378.274	328.31
378.737	344.31
379.199	367.31
379.662	366.31
380.125	357.31
380.587	347.31
381.05	364.31
381.512	357.31
381.975	384.31
382.437	381.31
382.9	368.31
383.362	385.31
383.825	383.31
384.287	398.31
384.75	375.31
385.212	387.31
385.674	359.31
386.136	402.31
386.599	379.31
387.061	383.31
387.523	397.31
387.985	375.31
388.447	391.31
388.91	397.31
389.372	385.31
389.834	430.31
390.296	414.31
390.758	419.31
391.22	407.31
391.682	416.31
392.144	405.31
392.606	415.31
393.068	413.31
393.529	452.31
393.991	437.31
394.453	438.31
394.915	396.31
395.377	409.31
395.838	417.31
396.3	404.31
396.762	420.31
397.224	411.31
397.685	408.31
398.147	401.31
398.608	427.31
399.07	469.31
399.531	430.31
399.993	435.31
400.454	448.31
400.916	432.31
401.377	443.31
401.839	453.31
402.3	458.31
402.762	476.31
403.223	484.31
403.684	477.31
404.145	468.31
404.607	457.31
405.068	465.31
405.529	440.31
405.99	492.31
406.451	475.31
406.913	480.31
407.374	445.31
407.835	467.31
408.296	468.31
408.757	489.31
409.218	502.31
409.679	533.31
410.14	524.31
410.601	524.31
411.062	530.31
411.522	562.31
411.983	541.31
412.444	557.31
412.905	542.31
413.366	558.31
413.826	603.31
414.287	665.31
414.748	817.31
415.208	838.31
415.669	719.31
416.13	658.31
416.59	647.31
417.051	664.31
417.511	714.31
417.972	753.31
418.432	759.31
418.893	869.31
419.353	837.31
419.814	624.31
420.274	589.31
420.734	544.31
421.195	575.31
421.655	583.31
422.115	574.31
422.576	597.31
423.036	600.31
423.496	611.31
423.956	651.31
424.416	650.31
424.876	739.31
425.336	727.31
425.797	729.31
426.257	711.31
426.717	680.31
427.177	599.31
427.637	599.31
428.097	629.31
428.556	631.31
429.016	678.31
429.476	657.31
429.936	630.31
430.396	623.31
430.856	629.31
431.315	649.31
431.775	664.31
432.235	737.31
432.694	728.31
433.154	686.31
433.614	699.31
434.073	673.31
434.533	597.31
434.993	599.31
435.452	655.31
435.912	630.31
436.371	616.31
436.83	622.31
437.29	623.31
437.749	637.31
438.209	645.31
438.668	643.31
439.127	653.31
439.587	656.31
440.046	629.31
440.505	631.31
440.964	662.31
441.424	685.31
441.883	700.31
442.342	661.31
442.801	649.31
443.26	659.31
443.719	641.31
444.178	643.31
444.637	653.31
445.096	685.31
445.555	669.31
446.014	649.31
446.473	659.31
446.932	664.31
447.391	671.31
447.849	701.31
448.308	671.31
448.767	692.31
449.226	695.31
449.685	724.31
450.143	732.31
450.602	760.31
451.061	717.31
451.519	662.31
451.978	684.31
452.436	687.31
452.895	685.31
453.353	693.31
453.812	663.31
454.27	695.31
454.729	699.31
455.187	718.31
455.646	698.31
456.104	703.31
456.562	716.31
457.021	711.31
457.479	656.31
457.937	727.31
458.395	720.31
458.854	746.31
459.312	727.31
459.77	691.31
460.228	732.31
460.686	762.31
461.144	752.31
461.602	757.31
462.06	708.31
462.518	731.31
462.976	763.31
463.434	750.31
463.892	754.31
464.35	807.31
464.808	799.31
465.266	812.31
465.724	763.31
466.181	799.31
466.639	817.31
467.097	826.31
467.555	870.31
468.012	873.31
468.47	890.31
468.928	863.31
469.385	921.31
469.843	946.31
470.3	905.31
470.758	906.31
471.215	947.31
471.673	938.31
472.13	954.31
472.588	1023.31
473.045	963.31
473.503	989.31
473.96	1043.31
474.417	1018.31
474.875	1043.31
475.332	1087.31
475.789	1083.31
476.246	1108.31
476.704	1113.31
477.161	1139.31
477.618	1150.31
478.075	1174.31
478.532	1225.31
478.989	1228.31
479.446	1277.31
479.903	1309.31
480.36	1294.31
480.817	1277.31
481.274	1296.31
481.731	1341.31
482.188	1375.31
482.645	1405.31
483.102	1411.31
483.558	1450.31
484.015	1519.31
484.472	1475.31
484.929	1489.31
485.385	1448.31
485.842	1491.31
486.299	1496.31
486.755	1516.31
487.212	1486.31
487.668	1456.31
488.125	1434.31
488.582	1416.31
489.038	1450.31
489.494	1430.31
489.951	1447.31
490.407	1461.31
490.864	1399.31
491.32	1443.31
491.776	1439.31
492.233	1458.31
492.689	1459.31
493.145	1475.31
493.602	1430.31
494.058	1463.31
494.514	1495.31
494.97	1502.31
495.426	1523.31
495.882	1515.31
496.338	1544.31
496.794	1545.31
497.251	1526.31
497.707	1586.31
498.163	1574.31
498.618	1605.31
499.074	1529.31
499.53	1611.31
499.986	1621.31
500.442	1568.31
500.898	1603.31
501.354	1590.31
501.809	1634.31
502.265	1583.31
502.721	1648.31
503.177	1636.31
503.632	1665.31
504.088	1659.31
504.543	1678.31
504.999	1685.31
505.455	1687.31
505.91	1675.31
506.366	1647.31
506.821	1678.31
507.277	1646.31
507.732	1663.31
508.187	1685.31
508.643	1675.31
509.098	1719.31
509.553	1696.31
510.009	1719.31
510.464	1751.31
510.919	1781.31
511.375	1748.31
511.83	1821.31
512.285	1824.31
512.74	1878.31
513.195	1901.31
513.65	1953.31
514.105	1957.31
514.56	1996.31
515.015	1993.31
515.47	2055.31
515.925	1991.31
516.38	1959.31
516.835	1991.31
517.29	1979.31
517.745	1986.31
518.2	1952.31
518.655	1907.31
519.109	1895.31
519.564	1862.31
520.019	1843.31
520.474	1831.31
520.928	1825.31
521.383	1870.31
521.838	1810.31
522.292	1819.31
522.747	1784.31
523.201	1751.31
523.656	1748.31
524.11	1750.31
524.565	1727.31
525.019	1803.31
525.474	1737.31
525.928	1745.31
526.382	1760.31
526.837	1771.31
527.291	1775.31
527.745	1767.31
528.2	1716.31
528.654	1727.31
529.108	1731.31
529.562	1740.31
530.016	1750.31
530.47	1699.31
530.925	1747.31
531.379	1711.31
531.833	1727.31
532.287	1788.31
532.741	1752.31
533.195	1768.31
533.649	1780.31
534.103	1772.31
534.556	1757.31
535.01	1740.31
535.464	1757.31
535.918	1769.31
536.372	1728.31
536.826	1747.31
537.279	1746.31
537.733	1733.31
538.187	1722.31
538.64	1772.31
539.094	1747.31
539.548	1793.31
540.001	1763.31
540.455	1813.31
540.908	1767.31
541.362	1827.31
541.815	1873.31
542.269	1888.31
542.722	1861.31
543.175	1891.31
543.629	1913.31
544.082	1917.31
544.536	1956.31
544.989	1953.31
545.442	1971.31
545.895	1986.31
546.349	2002.31
546.802	1931.31
547.255	1998.31
547.708	1966.31
548.161	1998.31
548.614	2047.31
549.067	2016.31
549.52	1962.31
549.973	1975.31
550.426	2033.31
550.879	1972.31
551.332	1952.31
551.785	1965.31
552.238	1972.31
552.691	1994.31
553.144	2064.31
553.596	2062.31
554.049	2054.31
554.502	2140.31
554.955	2210.31
555.407	2224.31
555.86	2191.31
556.313	2173.31
556.765	2134.31
557.218	2124.31
557.67	2113.31
558.123	2099.31
558.576	2103.31
559.028	2139.31
559.48	2099.31
559.933	2111.31
560.385	2040.31
560.838	1995.31
561.29	1927.31
561.742	1861.31
562.195	1836.31
562.647	1797.31
563.099	1836.31
563.551	1812.31
564.004	1811.31
564.456	1825.31
564.908	1749.31
565.36	1755.31
565.812	1697.31
566.264	1691.31
566.716	1667.31
567.168	1623.31
567.62	1635.31
568.072	1644.31
568.524	1604.31
568.976	1615.31
569.428	1616.31
569.88	1596.31
570.332	1578.31
570.784	1612.31
571.235	1638.31
571.687	1588.31
572.139	1624.31
572.59	1649.31
573.042	1687.31
573.494	1628.31
573.945	1611.31
574.397	1613.31
574.849	1609.31
575.3	1583.31
575.752	1540.31
576.203	1543.31
576.655	1592.31
577.106	1512.31
577.557	1567.31
578.009	1568.31
578.46	1542.31
578.912	1545.31
579.363	1539.31
579.814	1543.31
580.265	1569.31
580.717	1513.31
581.168	1517.31
581.619	1577.31
582.07	1547.31
582.521	1577.31
582.972	1546.31
583.423	1526.31
583.875	1612.31
584.326	1534.31
584.777	1579.31
585.227	1596.31
585.678	1664.31
586.129	1603.31
586.58	1659.31
587.031	1691.31
587.482	1709.31
587.933	1754.31
588.384	1750.31
588.834	1727.31
589.285	1762.31
589.736	1771.31
590.186	1746.31
590.637	1703.31
591.088	1619.31
591.538	1638.31
591.989	1629.31
592.439	1635.31
592.89	1600.31
593.34	1567.31
593.791	1552.31
594.241	1597.31
594.692	1582.31
595.142	1590.31
595.593	1527.31
596.043	1557.31
596.493	1552.31
596.943	1586.31
597.394	1587.31
597.844	1623.31
598.294	1657.31
598.744	1766.31
599.195	1790.31
599.645	1908.31
600.095	2012.31
600.545	2102.31
600.995	2246.31
601.445	2293.31
601.895	2389.31
602.345	2477.31
602.795	2539.31
603.245	2386.31
603.695	2218.31
604.145	2103.31
604.594	1985.31
605.044	1884.31
605.494	1775.31
605.944	1679.31
606.393	1660.31
606.843	1599.31
607.293	1613.31
607.743	1616.31
608.192	1614.31
608.642	1554.31
609.091	1610.31
609.541	1590.31
609.99	1612.31
610.44	1588.31
610.889	1536.31
611.339	1526.31
611.788	1496.31
612.238	1486.31
612.687	1495.31
613.136	1534.31
613.586	1551.31
614.035	1527.31
614.484	1549.31
614.933	1557.31
615.383	1514.31
615.832	1480.31
616.281	1456.31
616.73	1454.31
617.179	1386.31
617.628	1411.31
618.077	1358.31
618.526	1339.31
618.975	1340.31
619.424	1292.31
619.873	1309.31
620.322	1321.31
620.771	1274.31
621.22	1269.31
621.669	1274.31
622.118	1227.31
622.567	1211.31
623.015	1196.31
623.464	1216.31
623.913	1178.31
624.361	1175.31
624.81	1186.31
625.259	1190.31
625.707	1157.31
626.156	1188.31
626.604	1210.31
627.053	1240.31
627.501	1216.31
627.95	1219.31
628.398	1245.31
628.847	1260.31
629.295	1191.31
629.744	1211.31
630.192	1208.31
630.64	1201.31
631.089	1152.31
631.537	1121.31
631.985	1117.31
632.433	1118.31
632.881	1081.31
633.33	1057.31
633.778	1079.31
634.226	1100.31
634.674	1067.31
635.122	1136.31
635.57	1112.31
636.018	1160.31
636.466	1133.31
636.914	1136.31
637.362	1144.31
637.81	1157.31
638.258	1229.31
638.705	1190.31
639.153	1281.31
639.601	1285.31
640.049	1275.31
640.497	1353.31
640.944	1360.31
641.392	1328.31
641.84	1243.31
642.287	1137.31
642.735	1076.31
643.182	1059.31
643.63	1071.31
644.078	1066.31
644.525	1077.31
644.973	1038.31
645.42	1037.31
645.867	1062.31
646.315	1068.31
646.762	1092.31
647.21	1064.31
647.657	1090.31
648.104	1058.31
648.551	1030.31
648.999	1071.31
649.446	1020.31
649.893	988.31
650.34	1008.31
650.787	1055.31
651.234	1069.31
651.682	1191.31
652.129	1256.31
652.576	1394.31
653.023	1648.31
653.47	1805.31
653.917	1881.31
654.363	1907.31
654.81	2021.31
655.257	2082.31
655.704	1754.31
656.151	1354.31
656.598	1179.31
657.044	1080.31
657.491	1037.31
657.938	1037.31
658.385	1012.31
658.831	982.31
659.278	996.31
659.724	989.31
660.171	989.31
660.618	956.31
661.064	940.31
661.511	931.31
661.957	934.31
662.404	931.31
662.85	951.31
663.296	973.31
663.743	958.31
664.189	944.31
664.635	973.31
665.082	950.31
665.528	935.31
665.974	929.31
666.42	895.31
666.867	919.31
667.313	875.31
667.759	858.31
668.205	857.31
668.651	875.31
669.097	862.31
669.543	902.31
669.989	881.31
670.435	901.31
670.881	913.31
671.327	951.31
671.773	978.31
672.219	1075.31
672.665	1159.31
673.11	1175.31
673.556	1216.31
674.002	1297.31
674.448	1325.31
674.893	1164.31
675.339	1002.31
675.785	901.31
676.23	845.31
676.676	830.31
677.122	823.31
677.567	789.31
678.013	778.31
678.458	775.31
678.904	748.31
679.349	761.31
679.794	747.31
680.24	735.31
680.685	737.31
681.131	744.31
681.576	769.31
682.021	767.31
682.466	761.31
682.912	761.31
683.357	775.31
683.802	843.31
684.247	913.31
684.692	1000.31
685.137	1078.31
685.583	1085.31
686.028	1141.31
686.473	1107.31
686.918	1002.31
687.363	893.31
687.807	848.31
688.252	806.31
688.697	753.31
689.142	764.31
689.587	727.31
690.032	730.31
690.477	769.31
690.921	813.31
691.366	862.31
691.811	883.31
692.255	945.31
692.7	1057.31
693.145	1400.31
693.589	2204.31
694.034	2915.31
694.478	3208.31
694.923	3049.31
695.367	3735.31
695.812	3346.31
696.256	1312.31
696.701	829.31
697.145	789.31
697.59	713.31
698.034	707.31
698.478	711.31
698.922	712.31
699.367	732.31
699.811	753.31
700.255	779.31
700.699	821.31
701.143	954.31
701.588	1017.31
702.032	1076.31
702.476	1105.31
702.92	1128.31
703.364	1271.31
703.808	1951.31
704.252	2782.31
704.696	3147.31
705.14	2895.31
705.584	3660.31
706.027	2915.31
706.471	1342.31
706.915	906.31
707.359	765.31
707.803	725.31
708.246	682.31
708.69	688.31
709.134	677.31
709.577	693.31
710.021	682.31
710.465	675.31
710.908	692.31
711.352	720.31
711.795	763.31
712.239	841.31
712.682	850.31
713.126	831.31
713.569	917.31
714.012	862.31
714.456	692.31
714.899	665.31
715.342	635.31
715.786	608.31
716.229	578.31
716.672	578.31
717.115	561.31
717.558	555.31
718.002	611.31
718.445	584.31
718.888	657.31
719.331	641.31
719.774	653.31
720.217	663.31
720.66	631.31
721.103	596.31
721.546	565.31
721.989	549.31
722.432	550.31
722.874	544.31
723.317	538.31
723.76	566.31
724.203	643.31
724.645	843.31
725.088	1079.31
725.531	1115.31
725.974	1129.31
726.416	1206.31
726.859	775.31
727.301	589.31
727.744	539.31
728.187	541.31
728.629	559.31
729.071	565.31
729.514	601.31
729.956	611.31
730.399	644.31
730.841	622.31
731.283	624.31
731.726	587.31
732.168	579.31
732.61	617.31
733.053	677.31
733.495	732.31
733.937	818.31
734.379	895.31
734.821	1133.31
735.263	1533.31
735.705	2631.31
736.148	4469.31
736.59	5232.31
737.032	4848.31
737.474	5257.31
737.916	2433.31
738.357	1124.31
738.799	787.31
739.241	695.31
739.683	687.31
740.125	713.31
740.567	695.31
741.008	715.31
741.45	761.31
741.892	777.31
742.334	821.31
742.775	795.31
743.217	821.31
