Data from 20170802-ORNL-NYSim-Air_HRD10391_10-36-06-569.txt Node
Date: Wed Aug 02 10:36:06 EDT 2017
User: Ender
Spectrometer: HR+D1039
Trigger mode: 0
Integration Time (sec): 3.750000E-3
Scans to average: 1
Electric dark correction enabled: true
Nonlinearity correction enabled: false
Boxcar width: 0
XAxis mode: Wavelengths
Number of Pixels in Spectrum: 2048
>>>>>Begin Spectral Data<<<<<
187.836	5.94
188.309	5.94
188.782	5.94
189.255	-9.06
189.728	-5.06
190.201	-1.06
190.674	-16.06
191.147	-5.06
191.619	1.94
192.092	-9.06
192.565	-5.06
193.038	8.94
193.511	10.94
193.984	3.94
194.456	-3.06
194.929	-7.06
195.402	14.94
195.874	13.94
196.347	14.94
196.82	11.94
197.292	23.94
197.765	26.94
198.237	28.94
198.71	35.94
199.182	34.94
199.655	48.94
200.127	41.94
200.6	40.94
201.072	49.94
201.544	53.94
202.017	68.94
202.489	61.94
202.961	65.94
203.433	66.94
203.906	54.94
204.378	67.94
204.85	78.94
205.322	68.94
205.794	57.94
206.266	88.94
206.739	77.94
207.211	73.94
207.683	98.94
208.155	80.94
208.627	77.94
209.099	93.94
209.57	85.94
210.042	76.94
210.514	94.94
210.986	84.94
211.458	82.94
211.93	72.94
212.402	78.94
212.873	84.94
213.345	76.94
213.817	100.94
214.288	81.94
214.76	76.94
215.232	78.94
215.703	83.94
216.175	96.94
216.646	66.94
217.118	89.94
217.589	57.94
218.061	64.94
218.532	56.94
219.004	65.94
219.475	76.94
219.946	81.94
220.418	76.94
220.889	72.94
221.36	83.94
221.832	68.94
222.303	95.94
222.774	72.94
223.245	80.94
223.717	84.94
224.188	70.94
224.659	73.94
225.13	89.94
225.601	58.94
226.072	68.94
226.543	79.94
227.014	76.94
227.485	78.94
227.956	84.94
228.427	69.94
228.898	90.94
229.369	66.94
229.839	85.94
230.31	87.94
230.781	90.94
231.252	84.94
231.722	65.94
232.193	68.94
232.664	78.94
233.135	93.94
233.605	70.94
234.076	77.94
234.546	84.94
235.017	80.94
235.487	79.94
235.958	61.94
236.428	84.94
236.899	74.94
237.369	74.94
237.84	68.94
238.31	85.94
238.78	86.94
239.251	88.94
239.721	86.94
240.191	85.94
240.662	73.94
241.132	66.94
241.602	87.94
242.072	78.94
242.542	78.94
243.013	91.94
243.483	89.94
243.953	80.94
244.423	88.94
244.893	85.94
245.363	87.94
245.833	88.94
246.303	96.94
246.773	80.94
247.243	94.94
247.712	78.94
248.182	104.94
248.652	102.94
249.122	89.94
249.592	86.94
250.061	85.94
250.531	91.94
251.001	97.94
251.471	92.94
251.94	83.94
252.41	87.94
252.879	103.94
253.349	82.94
253.818	84.94
254.288	80.94
254.757	97.94
255.227	88.94
255.696	93.94
256.166	92.94
256.635	102.94
257.105	103.94
257.574	98.94
258.043	87.94
258.513	78.94
258.982	100.94
259.451	96.94
259.92	88.94
260.389	91.94
260.859	97.94
261.328	101.94
261.797	88.94
262.266	96.94
262.735	107.94
263.204	99.94
263.673	112.94
264.142	102.94
264.611	91.94
265.08	100.94
265.549	116.94
266.018	92.94
266.487	98.94
266.955	98.94
267.424	97.94
267.893	106.94
268.362	87.94
268.83	117.94
269.299	103.94
269.768	92.94
270.236	96.94
270.705	101.94
271.174	104.94
271.642	102.94
272.111	100.94
272.579	84.94
273.048	111.94
273.516	108.94
273.985	103.94
274.453	92.94
274.922	92.94
275.39	112.94
275.858	110.94
276.327	117.94
276.795	106.94
277.263	119.94
277.731	101.94
278.2	110.94
278.668	116.94
279.136	116.94
279.604	132.94
280.072	104.94
280.54	103.94
281.008	116.94
281.477	106.94
281.945	104.94
282.413	119.94
282.881	125.94
283.348	107.94
283.816	105.94
284.284	117.94
284.752	123.94
285.22	146.94
285.688	118.94
286.156	132.94
286.623	116.94
287.091	123.94
287.559	108.94
288.026	139.94
288.494	120.94
288.962	116.94
289.429	116.94
289.897	116.94
290.364	132.94
290.832	98.94
291.3	122.94
291.767	120.94
292.234	132.94
292.702	130.94
293.169	117.94
293.637	138.94
294.104	126.94
294.571	134.94
295.039	128.94
295.506	150.94
295.973	124.94
296.44	128.94
296.908	133.94
297.375	147.94
297.842	133.94
298.309	129.94
298.776	143.94
299.243	141.94
299.71	154.94
300.177	145.94
300.644	146.94
301.111	118.94
301.578	137.94
302.045	137.94
302.512	134.94
302.979	136.94
303.446	139.94
303.913	141.94
304.379	133.94
304.846	141.94
305.313	143.94
305.78	165.94
306.246	137.94
306.713	140.94
307.18	144.94
307.646	149.94
308.113	159.94
308.579	168.94
309.046	148.94
309.512	156.94
309.979	136.94
310.445	140.94
310.912	150.94
311.378	128.94
311.845	175.94
312.311	147.94
312.777	162.94
313.244	142.94
313.71	153.94
314.176	148.94
314.642	169.94
315.109	158.94
315.575	153.94
316.041	162.94
316.507	150.94
316.973	172.94
317.439	170.94
317.905	159.94
318.371	172.94
318.837	154.94
319.303	168.94
319.769	178.94
320.235	172.94
320.701	158.94
321.167	164.94
321.633	180.94
322.099	185.94
322.564	174.94
323.03	174.94
323.496	181.94
323.962	185.94
324.427	168.94
324.893	183.94
325.359	188.94
325.824	174.94
326.29	164.94
326.755	200.94
327.221	170.94
327.686	204.94
328.152	202.94
328.617	188.94
329.083	168.94
329.548	209.94
330.014	189.94
330.479	196.94
330.944	192.94
331.41	184.94
331.875	190.94
332.34	197.94
332.805	185.94
333.271	190.94
333.736	201.94
334.201	220.94
334.666	184.94
335.131	214.94
335.596	212.94
336.061	215.94
336.526	183.94
336.991	190.94
337.456	188.94
337.921	176.94
338.386	199.94
338.851	197.94
339.316	215.94
339.781	198.94
340.246	205.94
340.711	212.94
341.175	223.94
341.64	217.94
342.105	210.94
342.569	217.94
343.034	255.94
343.499	238.94
343.963	236.94
344.428	214.94
344.893	224.94
345.357	210.94
345.822	233.94
346.286	219.94
346.751	230.94
347.215	232.94
347.679	227.94
348.144	239.94
348.608	263.94
349.073	254.94
349.537	264.94
350.001	245.94
350.465	250.94
350.93	261.94
351.394	257.94
351.858	265.94
352.322	271.94
352.786	274.94
353.25	267.94
353.715	265.94
354.179	278.94
354.643	284.94
355.107	287.94
355.571	269.94
356.035	292.94
356.498	293.94
356.962	289.94
357.426	286.94
357.89	279.94
358.354	264.94
358.818	276.94
359.281	274.94
359.745	280.94
360.209	276.94
360.673	267.94
361.136	271.94
361.6	288.94
362.064	284.94
362.527	289.94
362.991	306.94
363.454	269.94
363.918	280.94
364.381	300.94
364.845	292.94
365.308	302.94
365.772	307.94
366.235	284.94
366.698	297.94
367.162	326.94
367.625	294.94
368.088	280.94
368.552	301.94
369.015	296.94
369.478	290.94
369.941	292.94
370.404	313.94
370.867	316.94
371.331	338.94
371.794	297.94
372.257	344.94
372.72	328.94
373.183	320.94
373.646	312.94
374.109	313.94
374.572	348.94
375.035	318.94
375.497	306.94
375.96	325.94
376.423	344.94
376.886	325.94
377.349	354.94
377.811	353.94
378.274	364.94
378.737	344.94
379.199	354.94
379.662	346.94
380.125	339.94
380.587	349.94
381.05	348.94
381.512	368.94
381.975	371.94
382.437	394.94
382.9	383.94
383.362	370.94
383.825	368.94
384.287	401.94
384.75	359.94
385.212	358.94
385.674	384.94
386.136	390.94
386.599	380.94
387.061	395.94
387.523	380.94
387.985	401.94
388.447	358.94
388.91	379.94
389.372	384.94
389.834	389.94
390.296	424.94
390.758	403.94
391.22	392.94
391.682	381.94
392.144	415.94
392.606	398.94
393.068	400.94
393.529	448.94
393.991	443.94
394.453	420.94
394.915	421.94
395.377	424.94
395.838	408.94
396.3	418.94
396.762	393.94
397.224	407.94
397.685	410.94
398.147	424.94
398.608	436.94
399.07	420.94
399.531	454.94
399.993	448.94
400.454	447.94
400.916	423.94
401.377	436.94
401.839	474.94
402.3	470.94
402.762	466.94
403.223	509.94
403.684	520.94
404.145	480.94
404.607	478.94
405.068	450.94
405.529	467.94
405.99	462.94
406.451	500.94
406.913	464.94
407.374	453.94
407.835	466.94
408.296	455.94
408.757	440.94
409.218	478.94
409.679	492.94
410.14	491.94
410.601	517.94
411.062	546.94
411.522	530.94
411.983	530.94
412.444	538.94
412.905	539.94
413.366	561.94
413.826	609.94
414.287	675.94
414.748	800.94
415.208	837.94
415.669	677.94
416.13	615.94
416.59	625.94
417.051	650.94
417.511	697.94
417.972	720.94
418.432	772.94
418.893	881.94
419.353	824.94
419.814	654.94
420.274	560.94
420.734	546.94
421.195	554.94
421.655	566.94
422.115	581.94
422.576	577.94
423.036	620.94
423.496	616.94
423.956	630.94
424.416	650.94
424.876	749.94
425.336	767.94
425.797	704.94
426.257	695.94
426.717	637.94
427.177	600.94
427.637	598.94
428.097	596.94
428.556	613.94
429.016	665.94
429.476	667.94
429.936	634.94
430.396	617.94
430.856	611.94
431.315	622.94
431.775	643.94
432.235	708.94
432.694	723.94
433.154	672.94
433.614	672.94
434.073	667.94
434.533	600.94
434.993	589.94
435.452	632.94
435.912	635.94
436.371	630.94
436.83	622.94
437.29	637.94
437.749	616.94
438.209	591.94
438.668	636.94
439.127	656.94
439.587	654.94
440.046	640.94
440.505	650.94
440.964	659.94
441.424	688.94
441.883	717.94
442.342	664.94
442.801	638.94
443.26	643.94
443.719	638.94
444.178	628.94
444.637	620.94
445.096	672.94
445.555	654.94
446.014	670.94
446.473	656.94
446.932	645.94
447.391	684.94
447.849	692.94
448.308	667.94
448.767	684.94
449.226	683.94
449.685	695.94
450.143	754.94
450.602	723.94
451.061	712.94
451.519	717.94
451.978	671.94
452.436	699.94
452.895	711.94
453.353	700.94
453.812	689.94
454.27	680.94
454.729	693.94
455.187	698.94
455.646	727.94
456.104	700.94
456.562	700.94
457.021	697.94
457.479	674.94
457.937	700.94
458.395	727.94
458.854	724.94
459.312	727.94
459.77	712.94
460.228	707.94
460.686	727.94
461.144	719.94
461.602	720.94
462.06	729.94
462.518	716.94
462.976	738.94
463.434	740.94
463.892	766.94
464.35	776.94
464.808	788.94
465.266	821.94
465.724	802.94
466.181	757.94
466.639	806.94
467.097	825.94
467.555	849.94
468.012	823.94
468.47	862.94
468.928	879.94
469.385	893.94
469.843	890.94
470.3	919.94
470.758	888.94
471.215	912.94
471.673	942.94
472.13	940.94
472.588	977.94
473.045	942.94
473.503	972.94
473.96	1012.94
474.417	1025.94
474.875	1064.94
475.332	1093.94
475.789	1093.94
476.246	1089.94
476.704	1085.94
477.161	1129.94
477.618	1156.94
478.075	1138.94
478.532	1214.94
478.989	1244.94
479.446	1269.94
479.903	1275.94
480.36	1259.94
480.817	1308.94
481.274	1266.94
481.731	1314.94
482.188	1354.94
482.645	1382.94
483.102	1409.94
483.558	1452.94
484.015	1432.94
484.472	1482.94
484.929	1487.94
485.385	1460.94
485.842	1435.94
486.299	1492.94
486.755	1434.94
487.212	1468.94
487.668	1455.94
488.125	1420.94
488.582	1403.94
489.038	1395.94
489.494	1420.94
489.951	1432.94
490.407	1427.94
490.864	1429.94
491.32	1438.94
491.776	1439.94
492.233	1473.94
492.689	1435.94
493.145	1419.94
493.602	1449.94
494.058	1488.94
494.514	1493.94
494.97	1472.94
495.426	1540.94
495.882	1510.94
496.338	1563.94
496.794	1552.94
497.251	1548.94
497.707	1550.94
498.163	1587.94
498.618	1563.94
499.074	1544.94
499.53	1598.94
499.986	1583.94
500.442	1581.94
500.898	1571.94
501.354	1606.94
501.809	1581.94
502.265	1631.94
502.721	1626.94
503.177	1604.94
503.632	1586.94
504.088	1602.94
504.543	1685.94
504.999	1670.94
505.455	1639.94
505.91	1620.94
506.366	1658.94
506.821	1669.94
507.277	1620.94
507.732	1650.94
508.187	1674.94
508.643	1682.94
509.098	1670.94
509.553	1652.94
510.009	1701.94
510.464	1746.94
510.919	1762.94
511.375	1746.94
511.83	1832.94
512.285	1840.94
512.74	1868.94
513.195	1920.94
513.65	1923.94
514.105	1956.94
514.56	1944.94
515.015	1990.94
515.47	2031.94
515.925	1952.94
516.38	1941.94
516.835	1982.94
517.29	1979.94
517.745	1965.94
518.2	1973.94
518.655	1904.94
519.109	1918.94
519.564	1874.94
520.019	1830.94
520.474	1812.94
520.928	1835.94
521.383	1803.94
521.838	1830.94
522.292	1780.94
522.747	1777.94
523.201	1785.94
523.656	1776.94
524.11	1741.94
524.565	1764.94
525.019	1699.94
525.474	1729.94
525.928	1746.94
526.382	1728.94
526.837	1694.94
527.291	1777.94
527.745	1691.94
528.2	1716.94
528.654	1706.94
529.108	1685.94
529.562	1728.94
530.016	1683.94
530.47	1713.94
530.925	1665.94
531.379	1718.94
531.833	1729.94
532.287	1724.94
532.741	1719.94
533.195	1716.94
533.649	1701.94
534.103	1760.94
534.556	1752.94
535.01	1728.94
535.464	1724.94
535.918	1714.94
536.372	1704.94
536.826	1726.94
537.279	1746.94
537.733	1726.94
538.187	1764.94
538.64	1749.94
539.094	1719.94
539.548	1731.94
540.001	1753.94
540.455	1762.94
540.908	1765.94
541.362	1786.94
541.815	1832.94
542.269	1835.94
542.722	1875.94
543.175	1843.94
543.629	1885.94
544.082	1875.94
544.536	1892.94
544.989	1928.94
545.442	1963.94
545.895	1917.94
546.349	1916.94
546.802	1994.94
547.255	1969.94
547.708	1974.94
548.161	1984.94
548.614	2046.94
549.067	2008.94
549.52	2020.94
549.973	1926.94
550.426	1940.94
550.879	1913.94
551.332	1896.94
551.785	1941.94
552.238	1966.94
552.691	1995.94
553.144	2025.94
553.596	2050.94
554.049	2074.94
554.502	2111.94
554.955	2173.94
555.407	2203.94
555.86	2164.94
556.313	2173.94
556.765	2125.94
557.218	2059.94
557.67	2126.94
558.123	2051.94
558.576	2074.94
559.028	2063.94
559.48	2080.94
559.933	2076.94
560.385	1953.94
560.838	1926.94
561.29	1896.94
561.742	1856.94
562.195	1826.94
562.647	1813.94
563.099	1842.94
563.551	1788.94
564.004	1819.94
564.456	1832.94
564.908	1764.94
565.36	1718.94
565.812	1703.94
566.264	1681.94
566.716	1626.94
567.168	1637.94
567.62	1598.94
568.072	1640.94
568.524	1614.94
568.976	1590.94
569.428	1618.94
569.88	1587.94
570.332	1572.94
570.784	1635.94
571.235	1569.94
571.687	1617.94
572.139	1610.94
572.59	1650.94
573.042	1630.94
573.494	1667.94
573.945	1575.94
574.397	1602.94
574.849	1589.94
575.3	1600.94
575.752	1583.94
576.203	1525.94
576.655	1548.94
577.106	1508.94
577.557	1492.94
578.009	1505.94
578.46	1539.94
578.912	1508.94
579.363	1514.94
579.814	1509.94
580.265	1522.94
580.717	1507.94
581.168	1476.94
581.619	1526.94
582.07	1570.94
582.521	1494.94
582.972	1534.94
583.423	1566.94
583.875	1547.94
584.326	1537.94
584.777	1574.94
585.227	1578.94
585.678	1566.94
586.129	1634.94
586.58	1628.94
587.031	1704.94
587.482	1684.94
587.933	1720.94
588.384	1749.94
588.834	1739.94
589.285	1731.94
589.736	1723.94
590.186	1725.94
590.637	1744.94
591.088	1692.94
591.538	1660.94
591.989	1655.94
592.439	1588.94
592.89	1604.94
593.34	1567.94
593.791	1548.94
594.241	1525.94
594.692	1564.94
595.142	1537.94
595.593	1558.94
596.043	1539.94
596.493	1572.94
596.943	1542.94
597.394	1652.94
597.844	1614.94
598.294	1620.94
598.744	1697.94
599.195	1805.94
599.645	1863.94
600.095	1984.94
600.545	2086.94
600.995	2195.94
601.445	2311.94
601.895	2432.94
602.345	2509.94
602.795	2404.94
603.245	2373.94
603.695	2226.94
604.145	2108.94
604.594	1991.94
605.044	1898.94
605.494	1804.94
605.944	1694.94
606.393	1595.94
606.843	1566.94
607.293	1549.94
607.743	1580.94
608.192	1617.94
608.642	1600.94
609.091	1572.94
609.541	1595.94
609.99	1632.94
610.44	1570.94
610.889	1521.94
611.339	1505.94
611.788	1497.94
612.238	1502.94
612.687	1517.94
613.136	1537.94
613.586	1523.94
614.035	1523.94
614.484	1506.94
614.933	1556.94
615.383	1456.94
615.832	1457.94
616.281	1469.94
616.73	1420.94
617.179	1399.94
617.628	1376.94
618.077	1376.94
618.526	1321.94
618.975	1336.94
619.424	1279.94
619.873	1321.94
620.322	1256.94
620.771	1311.94
621.22	1292.94
621.669	1227.94
622.118	1220.94
622.567	1228.94
623.015	1198.94
623.464	1201.94
623.913	1173.94
624.361	1189.94
624.81	1184.94
625.259	1163.94
625.707	1164.94
626.156	1191.94
626.604	1216.94
627.053	1167.94
627.501	1188.94
627.95	1204.94
628.398	1271.94
628.847	1216.94
629.295	1202.94
629.744	1216.94
630.192	1156.94
630.64	1176.94
631.089	1122.94
631.537	1123.94
631.985	1082.94
632.433	1083.94
632.881	1048.94
633.33	1086.94
633.778	1033.94
634.226	1046.94
634.674	1093.94
635.122	1096.94
635.57	1129.94
636.018	1125.94
636.466	1144.94
636.914	1124.94
637.362	1091.94
637.81	1148.94
638.258	1195.94
638.705	1178.94
639.153	1243.94
639.601	1257.94
640.049	1282.94
640.497	1332.94
640.944	1331.94
641.392	1309.94
641.84	1213.94
642.287	1143.94
642.735	1075.94
643.182	1064.94
643.63	1060.94
644.078	1031.94
644.525	1018.94
644.973	1044.94
645.42	1060.94
645.867	1060.94
646.315	1060.94
646.762	1060.94
647.21	1094.94
647.657	1094.94
648.104	1043.94
648.551	1014.94
648.999	1023.94
649.446	1012.94
649.893	996.94
650.34	1010.94
650.787	1056.94
651.234	1078.94
651.682	1112.94
652.129	1216.94
652.576	1408.94
653.023	1609.94
653.47	1750.94
653.917	1861.94
654.363	1897.94
654.81	1962.94
655.257	2042.94
655.704	1719.94
656.151	1353.94
656.598	1144.94
657.044	1066.94
657.491	1029.94
657.938	982.94
658.385	977.94
658.831	1005.94
659.278	964.94
659.724	974.94
660.171	949.94
660.618	930.94
661.064	937.94
661.511	922.94
661.957	908.94
662.404	913.94
662.85	955.94
663.296	931.94
663.743	939.94
664.189	906.94
664.635	951.94
665.082	959.94
665.528	964.94
665.974	934.94
666.42	904.94
666.867	901.94
667.313	872.94
667.759	868.94
668.205	871.94
668.651	869.94
669.097	856.94
669.543	864.94
669.989	890.94
670.435	904.94
670.881	890.94
671.327	927.94
671.773	980.94
672.219	1040.94
672.665	1152.94
673.11	1181.94
673.556	1236.94
674.002	1237.94
674.448	1348.94
674.893	1140.94
675.339	983.94
675.785	893.94
676.23	850.94
676.676	812.94
677.122	832.94
677.567	754.94
678.013	769.94
678.458	764.94
678.904	760.94
679.349	748.94
679.794	759.94
680.24	746.94
680.685	748.94
681.131	752.94
681.576	750.94
682.021	763.94
682.466	742.94
682.912	717.94
683.357	781.94
683.802	808.94
684.247	896.94
684.692	991.94
685.137	1066.94
685.583	1090.94
686.028	1120.94
686.473	1099.94
686.918	945.94
687.363	849.94
687.807	798.94
688.252	806.94
688.697	751.94
689.142	782.94
689.587	742.94
690.032	741.94
690.477	785.94
690.921	806.94
691.366	837.94
691.811	889.94
692.255	944.94
692.7	1083.94
693.145	1388.94
693.589	2150.94
694.034	2885.94
694.478	3226.94
694.923	2972.94
695.367	3668.94
695.812	3258.94
696.256	1307.94
696.701	864.94
697.145	739.94
697.59	727.94
698.034	697.94
698.478	723.94
698.922	682.94
699.367	738.94
699.811	750.94
700.255	789.94
700.699	869.94
701.143	938.94
701.588	1012.94
702.032	1038.94
702.476	1089.94
702.92	1120.94
703.364	1322.94
703.808	1910.94
704.252	2736.94
704.696	3131.94
705.14	2858.94
705.584	3606.94
706.027	2844.94
706.471	1342.94
706.915	922.94
707.359	763.94
707.803	724.94
708.246	682.94
708.69	660.94
709.134	686.94
709.577	688.94
710.021	688.94
710.465	679.94
710.908	646.94
711.352	649.94
711.795	703.94
712.239	821.94
712.682	860.94
713.126	825.94
713.569	891.94
714.012	826.94
714.456	648.94
714.899	644.94
715.342	605.94
715.786	593.94
716.229	541.94
716.672	562.94
717.115	566.94
717.558	561.94
718.002	571.94
718.445	588.94
718.888	644.94
719.331	654.94
719.774	638.94
720.217	641.94
720.66	622.94
721.103	600.94
721.546	562.94
721.989	540.94
722.432	530.94
722.874	536.94
723.317	547.94
723.76	554.94
724.203	608.94
724.645	870.94
725.088	1051.94
725.531	1097.94
725.974	1093.94
726.416	1184.94
726.859	757.94
727.301	598.94
727.744	507.94
728.187	546.94
728.629	541.94
729.071	583.94
729.514	590.94
729.956	609.94
730.399	630.94
730.841	626.94
731.283	620.94
731.726	592.94
732.168	600.94
732.61	624.94
733.053	679.94
733.495	731.94
733.937	806.94
734.379	896.94
734.821	1104.94
735.263	1543.94
735.705	2608.94
736.148	4472.94
736.59	5174.94
737.032	4943.94
737.474	5212.94
737.916	2440.94
738.357	1107.94
738.799	783.94
739.241	714.94
739.683	672.94
740.125	690.94
740.567	714.94
741.008	676.94
741.45	733.94
741.892	754.94
742.334	808.94
742.775	786.94
743.217	783.94
743.658	687.94
