Data from 20170802-ORNL-NYSim-Air_HRD10391_10-36-17-583.txt Node
Date: Wed Aug 02 10:36:17 EDT 2017
User: Ender
Spectrometer: HR+D1039
Trigger mode: 0
Integration Time (sec): 3.750000E-3
Scans to average: 1
Electric dark correction enabled: true
Nonlinearity correction enabled: false
Boxcar width: 0
XAxis mode: Wavelengths
Number of Pixels in Spectrum: 2048
>>>>>Begin Spectral Data<<<<<
187.836	-10.25
188.309	-10.25
188.782	-10.25
189.255	6.75
189.728	-8.25
190.201	-5.25
190.674	0.75
191.147	-1.25
191.619	-10.25
192.092	-17.25
192.565	-8.25
193.038	21.75
193.511	-3.25
193.984	3.75
194.456	9.75
194.929	1.75
195.402	7.75
195.874	11.75
196.347	11.75
196.82	12.75
197.292	13.75
197.765	29.75
198.237	45.75
198.71	38.75
199.182	43.75
199.655	48.75
200.127	43.75
200.6	38.75
201.072	73.75
201.544	67.75
202.017	53.75
202.489	71.75
202.961	83.75
203.433	66.75
203.906	76.75
204.378	77.75
204.85	70.75
205.322	77.75
205.794	89.75
206.266	90.75
206.739	87.75
207.211	78.75
207.683	85.75
208.155	74.75
208.627	67.75
209.099	74.75
209.57	79.75
210.042	83.75
210.514	75.75
210.986	77.75
211.458	73.75
211.93	71.75
212.402	72.75
212.873	87.75
213.345	87.75
213.817	93.75
214.288	82.75
214.76	75.75
215.232	64.75
215.703	67.75
216.175	87.75
216.646	89.75
217.118	87.75
217.589	63.75
218.061	94.75
218.532	77.75
219.004	76.75
219.475	81.75
219.946	78.75
220.418	64.75
220.889	60.75
221.36	85.75
221.832	83.75
222.303	67.75
222.774	81.75
223.245	69.75
223.717	78.75
224.188	71.75
224.659	68.75
225.13	71.75
225.601	80.75
226.072	100.75
226.543	69.75
227.014	59.75
227.485	74.75
227.956	85.75
228.427	89.75
228.898	77.75
229.369	67.75
229.839	67.75
230.31	77.75
230.781	91.75
231.252	83.75
231.722	75.75
232.193	93.75
232.664	100.75
233.135	83.75
233.605	93.75
234.076	53.75
234.546	100.75
235.017	93.75
235.487	91.75
235.958	88.75
236.428	81.75
236.899	88.75
237.369	78.75
237.84	90.75
238.31	78.75
238.78	97.75
239.251	86.75
239.721	89.75
240.191	78.75
240.662	62.75
241.132	94.75
241.602	102.75
242.072	87.75
242.542	91.75
243.013	81.75
243.483	96.75
243.953	111.75
244.423	87.75
244.893	95.75
245.363	103.75
245.833	92.75
246.303	95.75
246.773	96.75
247.243	99.75
247.712	98.75
248.182	84.75
248.652	68.75
249.122	84.75
249.592	79.75
250.061	79.75
250.531	88.75
251.001	93.75
251.471	91.75
251.94	98.75
252.41	75.75
252.879	98.75
253.349	83.75
253.818	86.75
254.288	103.75
254.757	93.75
255.227	77.75
255.696	72.75
256.166	93.75
256.635	94.75
257.105	99.75
257.574	99.75
258.043	92.75
258.513	103.75
258.982	102.75
259.451	104.75
259.92	98.75
260.389	106.75
260.859	107.75
261.328	99.75
261.797	93.75
262.266	83.75
262.735	115.75
263.204	94.75
263.673	98.75
264.142	87.75
264.611	106.75
265.08	96.75
265.549	93.75
266.018	112.75
266.487	94.75
266.955	103.75
267.424	110.75
267.893	107.75
268.362	96.75
268.83	101.75
269.299	109.75
269.768	102.75
270.236	112.75
270.705	108.75
271.174	122.75
271.642	113.75
272.111	114.75
272.579	107.75
273.048	93.75
273.516	107.75
273.985	122.75
274.453	96.75
274.922	109.75
275.39	120.75
275.858	103.75
276.327	122.75
276.795	99.75
277.263	106.75
277.731	99.75
278.2	117.75
278.668	111.75
279.136	114.75
279.604	107.75
280.072	107.75
280.54	123.75
281.008	130.75
281.477	123.75
281.945	102.75
282.413	104.75
282.881	118.75
283.348	131.75
283.816	110.75
284.284	123.75
284.752	109.75
285.22	137.75
285.688	134.75
286.156	125.75
286.623	111.75
287.091	125.75
287.559	118.75
288.026	128.75
288.494	141.75
288.962	127.75
289.429	118.75
289.897	129.75
290.364	117.75
290.832	142.75
291.3	123.75
291.767	113.75
292.234	135.75
292.702	129.75
293.169	107.75
293.637	133.75
294.104	125.75
294.571	141.75
295.039	124.75
295.506	124.75
295.973	128.75
296.44	137.75
296.908	134.75
297.375	137.75
297.842	133.75
298.309	131.75
298.776	125.75
299.243	152.75
299.71	124.75
300.177	135.75
300.644	117.75
301.111	135.75
301.578	148.75
302.045	136.75
302.512	153.75
302.979	148.75
303.446	164.75
303.913	146.75
304.379	143.75
304.846	135.75
305.313	170.75
305.78	179.75
306.246	154.75
306.713	171.75
307.18	163.75
307.646	154.75
308.113	151.75
308.579	149.75
309.046	140.75
309.512	161.75
309.979	161.75
310.445	162.75
310.912	144.75
311.378	166.75
311.845	170.75
312.311	157.75
312.777	170.75
313.244	177.75
313.71	159.75
314.176	149.75
314.642	158.75
315.109	157.75
315.575	163.75
316.041	167.75
316.507	160.75
316.973	179.75
317.439	157.75
317.905	149.75
318.371	170.75
318.837	152.75
319.303	181.75
319.769	183.75
320.235	171.75
320.701	171.75
321.167	168.75
321.633	164.75
322.099	184.75
322.564	173.75
323.03	161.75
323.496	178.75
323.962	161.75
324.427	179.75
324.893	179.75
325.359	180.75
325.824	189.75
326.29	194.75
326.755	193.75
327.221	185.75
327.686	207.75
328.152	175.75
328.617	193.75
329.083	207.75
329.548	187.75
330.014	193.75
330.479	191.75
330.944	207.75
331.41	200.75
331.875	199.75
332.34	216.75
332.805	199.75
333.271	215.75
333.736	221.75
334.201	193.75
334.666	214.75
335.131	221.75
335.596	191.75
336.061	203.75
336.526	204.75
336.991	202.75
337.456	218.75
337.921	205.75
338.386	197.75
338.851	207.75
339.316	205.75
339.781	211.75
340.246	198.75
340.711	216.75
341.175	203.75
341.64	235.75
342.105	206.75
342.569	216.75
343.034	221.75
343.499	229.75
343.963	250.75
344.428	221.75
344.893	229.75
345.357	229.75
345.822	224.75
346.286	239.75
346.751	238.75
347.215	251.75
347.679	249.75
348.144	263.75
348.608	253.75
349.073	265.75
349.537	272.75
350.001	262.75
350.465	248.75
350.93	247.75
351.394	287.75
351.858	267.75
352.322	291.75
352.786	295.75
353.25	271.75
353.715	290.75
354.179	260.75
354.643	290.75
355.107	298.75
355.571	300.75
356.035	301.75
356.498	283.75
356.962	277.75
357.426	292.75
357.89	282.75
358.354	304.75
358.818	297.75
359.281	274.75
359.745	308.75
360.209	282.75
360.673	292.75
361.136	289.75
361.6	300.75
362.064	298.75
362.527	281.75
362.991	311.75
363.454	286.75
363.918	292.75
364.381	299.75
364.845	307.75
365.308	315.75
365.772	301.75
366.235	306.75
366.698	283.75
367.162	295.75
367.625	296.75
368.088	291.75
368.552	309.75
369.015	313.75
369.478	317.75
369.941	317.75
370.404	324.75
370.867	296.75
371.331	311.75
371.794	324.75
372.257	328.75
372.72	329.75
373.183	308.75
373.646	331.75
374.109	313.75
374.572	331.75
375.035	340.75
375.497	339.75
375.96	351.75
376.423	356.75
376.886	375.75
377.349	344.75
377.811	338.75
378.274	340.75
378.737	339.75
379.199	366.75
379.662	345.75
380.125	359.75
380.587	357.75
381.05	355.75
381.512	385.75
381.975	390.75
382.437	369.75
382.9	389.75
383.362	397.75
383.825	377.75
384.287	389.75
384.75	383.75
385.212	384.75
385.674	377.75
386.136	413.75
386.599	402.75
387.061	405.75
387.523	384.75
387.985	385.75
388.447	404.75
388.91	405.75
389.372	423.75
389.834	403.75
390.296	423.75
390.758	423.75
391.22	413.75
391.682	413.75
392.144	408.75
392.606	428.75
393.068	413.75
393.529	461.75
393.991	441.75
394.453	436.75
394.915	397.75
395.377	385.75
395.838	418.75
396.3	416.75
396.762	430.75
397.224	449.75
397.685	417.75
398.147	417.75
398.608	417.75
399.07	437.75
399.531	435.75
399.993	432.75
400.454	448.75
400.916	444.75
401.377	448.75
401.839	451.75
402.3	453.75
402.762	465.75
403.223	511.75
403.684	490.75
404.145	486.75
404.607	463.75
405.068	465.75
405.529	485.75
405.99	479.75
406.451	467.75
406.913	456.75
407.374	451.75
407.835	450.75
408.296	495.75
408.757	508.75
409.218	496.75
409.679	538.75
410.14	511.75
410.601	529.75
411.062	537.75
411.522	537.75
411.983	547.75
412.444	558.75
412.905	584.75
413.366	591.75
413.826	639.75
414.287	669.75
414.748	839.75
415.208	846.75
415.669	741.75
416.13	662.75
416.59	615.75
417.051	663.75
417.511	670.75
417.972	736.75
418.432	789.75
418.893	879.75
419.353	849.75
419.814	648.75
420.274	583.75
420.734	597.75
421.195	600.75
421.655	563.75
422.115	616.75
422.576	605.75
423.036	598.75
423.496	617.75
423.956	637.75
424.416	664.75
424.876	775.75
425.336	737.75
425.797	753.75
426.257	723.75
426.717	682.75
427.177	631.75
427.637	610.75
428.097	632.75
428.556	651.75
429.016	643.75
429.476	658.75
429.936	625.75
430.396	611.75
430.856	647.75
431.315	613.75
431.775	688.75
432.235	721.75
432.694	759.75
433.154	703.75
433.614	714.75
434.073	661.75
434.533	613.75
434.993	623.75
435.452	621.75
435.912	628.75
436.371	651.75
436.83	630.75
437.29	622.75
437.749	644.75
438.209	650.75
438.668	661.75
439.127	670.75
439.587	655.75
440.046	658.75
440.505	658.75
440.964	654.75
441.424	691.75
441.883	679.75
442.342	670.75
442.801	659.75
443.26	683.75
443.719	669.75
444.178	639.75
444.637	659.75
445.096	658.75
445.555	709.75
446.014	669.75
446.473	661.75
446.932	676.75
447.391	671.75
447.849	677.75
448.308	687.75
448.767	715.75
449.226	706.75
449.685	700.75
450.143	707.75
450.602	728.75
451.061	722.75
451.519	745.75
451.978	727.75
452.436	696.75
452.895	705.75
453.353	705.75
453.812	709.75
454.27	698.75
454.729	714.75
455.187	722.75
455.646	715.75
456.104	710.75
456.562	721.75
457.021	719.75
457.479	695.75
457.937	715.75
458.395	771.75
458.854	763.75
459.312	721.75
459.77	737.75
460.228	725.75
460.686	762.75
461.144	770.75
461.602	757.75
462.06	760.75
462.518	782.75
462.976	767.75
463.434	755.75
463.892	765.75
464.35	791.75
464.808	794.75
465.266	801.75
465.724	809.75
466.181	837.75
466.639	840.75
467.097	827.75
467.555	870.75
468.012	889.75
468.47	911.75
468.928	908.75
469.385	954.75
469.843	939.75
470.3	924.75
470.758	965.75
471.215	938.75
471.673	990.75
472.13	974.75
472.588	1040.75
473.045	964.75
473.503	993.75
473.96	1072.75
474.417	1091.75
474.875	1055.75
475.332	1116.75
475.789	1137.75
476.246	1111.75
476.704	1139.75
477.161	1177.75
477.618	1192.75
478.075	1197.75
478.532	1227.75
478.989	1245.75
479.446	1295.75
479.903	1337.75
480.36	1309.75
480.817	1342.75
481.274	1341.75
481.731	1344.75
482.188	1374.75
482.645	1420.75
483.102	1466.75
483.558	1486.75
484.015	1553.75
484.472	1506.75
484.929	1488.75
485.385	1489.75
485.842	1462.75
486.299	1551.75
486.755	1553.75
487.212	1519.75
487.668	1475.75
488.125	1471.75
488.582	1429.75
489.038	1482.75
489.494	1451.75
489.951	1492.75
490.407	1483.75
490.864	1466.75
491.32	1437.75
491.776	1501.75
492.233	1507.75
492.689	1512.75
493.145	1467.75
493.602	1492.75
494.058	1489.75
494.514	1521.75
494.97	1560.75
495.426	1557.75
495.882	1547.75
496.338	1547.75
496.794	1576.75
497.251	1598.75
497.707	1602.75
498.163	1644.75
498.618	1637.75
499.074	1616.75
499.53	1627.75
499.986	1665.75
500.442	1629.75
500.898	1629.75
501.354	1639.75
501.809	1653.75
502.265	1637.75
502.721	1630.75
503.177	1636.75
503.632	1637.75
504.088	1669.75
504.543	1689.75
504.999	1703.75
505.455	1690.75
505.91	1742.75
506.366	1677.75
506.821	1719.75
507.277	1678.75
507.732	1728.75
508.187	1766.75
508.643	1680.75
509.098	1739.75
509.553	1723.75
510.009	1769.75
510.464	1810.75
510.919	1817.75
511.375	1809.75
511.83	1827.75
512.285	1912.75
512.74	1935.75
513.195	1933.75
513.65	1938.75
514.105	1966.75
514.56	2022.75
515.015	2019.75
515.47	2034.75
515.925	2009.75
516.38	2038.75
516.835	2066.75
517.29	2030.75
517.745	2063.75
518.2	2013.75
518.655	1980.75
519.109	1957.75
519.564	1945.75
520.019	1883.75
520.474	1898.75
520.928	1883.75
521.383	1884.75
521.838	1879.75
522.292	1853.75
522.747	1851.75
523.201	1838.75
523.656	1823.75
524.11	1796.75
524.565	1817.75
525.019	1818.75
525.474	1808.75
525.928	1755.75
526.382	1776.75
526.837	1804.75
527.291	1813.75
527.745	1784.75
528.2	1780.75
528.654	1791.75
529.108	1781.75
529.562	1783.75
530.016	1793.75
530.47	1748.75
530.925	1774.75
531.379	1800.75
531.833	1801.75
532.287	1787.75
532.741	1764.75
533.195	1827.75
533.649	1789.75
534.103	1799.75
534.556	1827.75
535.01	1817.75
535.464	1786.75
535.918	1766.75
536.372	1829.75
536.826	1779.75
537.279	1770.75
537.733	1831.75
538.187	1825.75
538.64	1810.75
539.094	1841.75
539.548	1827.75
540.001	1811.75
540.455	1863.75
540.908	1883.75
541.362	1857.75
541.815	1875.75
542.269	1911.75
542.722	1919.75
543.175	1925.75
543.629	1989.75
544.082	1983.75
544.536	1962.75
544.989	1994.75
545.442	1988.75
545.895	2008.75
546.349	1949.75
546.802	1968.75
547.255	2007.75
547.708	2056.75
548.161	2066.75
548.614	2035.75
549.067	2081.75
549.52	2088.75
549.973	2051.75
550.426	2011.75
550.879	2049.75
551.332	2012.75
551.785	2037.75
552.238	2090.75
552.691	2077.75
553.144	2091.75
553.596	2102.75
554.049	2186.75
554.502	2206.75
554.955	2250.75
555.407	2285.75
555.86	2200.75
556.313	2212.75
556.765	2202.75
557.218	2145.75
557.67	2082.75
558.123	2151.75
558.576	2135.75
559.028	2138.75
559.48	2147.75
559.933	2155.75
560.385	2059.75
560.838	2006.75
561.29	1958.75
561.742	1941.75
562.195	1867.75
562.647	1875.75
563.099	1893.75
563.551	1851.75
564.004	1855.75
564.456	1900.75
564.908	1826.75
565.36	1796.75
565.812	1732.75
566.264	1721.75
566.716	1717.75
567.168	1645.75
567.62	1661.75
568.072	1656.75
568.524	1682.75
568.976	1646.75
569.428	1639.75
569.88	1621.75
570.332	1654.75
570.784	1660.75
571.235	1649.75
571.687	1674.75
572.139	1693.75
572.59	1708.75
573.042	1662.75
573.494	1716.75
573.945	1696.75
574.397	1652.75
574.849	1618.75
575.3	1617.75
575.752	1630.75
576.203	1575.75
576.655	1580.75
577.106	1593.75
577.557	1560.75
578.009	1538.75
578.46	1575.75
578.912	1497.75
579.363	1528.75
579.814	1573.75
580.265	1563.75
580.717	1535.75
581.168	1546.75
581.619	1570.75
582.07	1577.75
582.521	1585.75
582.972	1599.75
583.423	1611.75
583.875	1564.75
584.326	1575.75
584.777	1631.75
585.227	1607.75
585.678	1661.75
586.129	1672.75
586.58	1718.75
587.031	1743.75
587.482	1810.75
587.933	1838.75
588.384	1815.75
588.834	1759.75
589.285	1752.75
589.736	1734.75
590.186	1780.75
590.637	1736.75
591.088	1747.75
591.538	1671.75
591.989	1664.75
592.439	1655.75
592.89	1634.75
593.34	1591.75
593.791	1642.75
594.241	1577.75
594.692	1585.75
595.142	1594.75
595.593	1591.75
596.043	1580.75
596.493	1595.75
596.943	1605.75
597.394	1633.75
597.844	1615.75
598.294	1709.75
598.744	1777.75
599.195	1843.75
599.645	1960.75
600.095	2051.75
600.545	2175.75
600.995	2242.75
601.445	2406.75
601.895	2477.75
602.345	2547.75
602.795	2607.75
603.245	2428.75
603.695	2297.75
604.145	2157.75
604.594	2049.75
605.044	1925.75
605.494	1819.75
605.944	1705.75
606.393	1696.75
606.843	1682.75
607.293	1621.75
607.743	1598.75
608.192	1633.75
608.642	1607.75
609.091	1633.75
609.541	1629.75
609.99	1672.75
610.44	1638.75
610.889	1564.75
611.339	1577.75
611.788	1550.75
612.238	1532.75
612.687	1571.75
613.136	1570.75
613.586	1568.75
614.035	1556.75
614.484	1581.75
614.933	1573.75
615.383	1586.75
615.832	1527.75
616.281	1501.75
616.73	1437.75
617.179	1441.75
617.628	1416.75
618.077	1374.75
618.526	1361.75
618.975	1348.75
619.424	1356.75
619.873	1346.75
620.322	1344.75
620.771	1330.75
621.22	1304.75
621.669	1286.75
622.118	1290.75
622.567	1249.75
623.015	1224.75
623.464	1222.75
623.913	1239.75
624.361	1224.75
624.81	1231.75
625.259	1229.75
625.707	1195.75
626.156	1244.75
626.604	1227.75
627.053	1223.75
627.501	1217.75
627.95	1242.75
628.398	1260.75
628.847	1256.75
629.295	1273.75
629.744	1239.75
630.192	1212.75
630.64	1208.75
631.089	1151.75
631.537	1155.75
631.985	1149.75
632.433	1153.75
632.881	1106.75
633.33	1131.75
633.778	1097.75
634.226	1121.75
634.674	1142.75
635.122	1112.75
635.57	1148.75
636.018	1169.75
636.466	1154.75
636.914	1171.75
637.362	1171.75
637.81	1191.75
638.258	1269.75
638.705	1237.75
639.153	1290.75
639.601	1340.75
640.049	1334.75
640.497	1371.75
640.944	1394.75
641.392	1320.75
641.84	1237.75
642.287	1161.75
642.735	1117.75
643.182	1085.75
643.63	1096.75
644.078	1075.75
644.525	1041.75
644.973	1120.75
645.42	1109.75
645.867	1095.75
646.315	1081.75
646.762	1110.75
647.21	1129.75
647.657	1106.75
648.104	1101.75
648.551	1077.75
648.999	1039.75
649.446	1058.75
649.893	1005.75
650.34	1047.75
650.787	1077.75
651.234	1091.75
651.682	1141.75
652.129	1279.75
652.576	1408.75
653.023	1641.75
653.47	1816.75
653.917	1927.75
654.363	1928.75
654.81	1997.75
655.257	2147.75
655.704	1787.75
656.151	1366.75
656.598	1176.75
657.044	1108.75
657.491	1060.75
657.938	1037.75
658.385	988.75
658.831	1015.75
659.278	995.75
659.724	977.75
660.171	951.75
660.618	939.75
661.064	955.75
661.511	936.75
661.957	958.75
662.404	967.75
662.85	954.75
663.296	969.75
663.743	962.75
664.189	1005.75
664.635	995.75
665.082	1003.75
665.528	967.75
665.974	952.75
666.42	951.75
666.867	942.75
667.313	920.75
667.759	894.75
668.205	881.75
668.651	883.75
669.097	909.75
669.543	916.75
669.989	907.75
670.435	906.75
670.881	920.75
671.327	966.75
671.773	1043.75
672.219	1079.75
672.665	1147.75
673.11	1205.75
673.556	1259.75
674.002	1303.75
674.448	1378.75
674.893	1177.75
675.339	1024.75
675.785	933.75
676.23	894.75
676.676	835.75
677.122	826.75
677.567	796.75
678.013	775.75
678.458	779.75
678.904	781.75
679.349	769.75
679.794	755.75
680.24	761.75
680.685	747.75
681.131	739.75
681.576	775.75
682.021	783.75
682.466	775.75
682.912	756.75
683.357	797.75
683.802	857.75
684.247	917.75
684.692	1037.75
685.137	1073.75
685.583	1110.75
686.028	1163.75
686.473	1141.75
686.918	969.75
687.363	860.75
687.807	866.75
688.252	801.75
688.697	793.75
689.142	766.75
689.587	774.75
690.032	748.75
690.477	787.75
690.921	807.75
691.366	854.75
691.811	928.75
692.255	950.75
692.7	1102.75
693.145	1411.75
693.589	2178.75
694.034	2991.75
694.478	3309.75
694.923	3088.75
695.367	3810.75
695.812	3446.75
696.256	1352.75
696.701	847.75
697.145	768.75
697.59	739.75
698.034	721.75
698.478	708.75
698.922	712.75
699.367	732.75
699.811	752.75
700.255	790.75
700.699	921.75
701.143	989.75
701.588	1056.75
702.032	1087.75
702.476	1149.75
702.92	1161.75
703.364	1350.75
703.808	2031.75
704.252	2828.75
704.696	3209.75
705.14	2969.75
705.584	3760.75
706.027	2918.75
706.471	1336.75
706.915	927.75
707.359	804.75
707.803	733.75
708.246	699.75
708.69	693.75
709.134	685.75
709.577	695.75
710.021	685.75
710.465	688.75
710.908	682.75
711.352	702.75
711.795	747.75
712.239	827.75
712.682	896.75
713.126	828.75
713.569	917.75
714.012	869.75
714.456	715.75
714.899	667.75
715.342	631.75
715.786	615.75
716.229	597.75
716.672	561.75
717.115	583.75
717.558	588.75
718.002	601.75
718.445	633.75
718.888	615.75
719.331	665.75
719.774	690.75
720.217	687.75
720.66	647.75
721.103	631.75
721.546	597.75
721.989	572.75
722.432	542.75
722.874	539.75
723.317	534.75
723.76	561.75
724.203	643.75
724.645	871.75
725.088	1084.75
725.531	1127.75
725.974	1115.75
726.416	1221.75
726.859	799.75
727.301	597.75
727.744	561.75
728.187	556.75
728.629	566.75
729.071	592.75
729.514	606.75
729.956	641.75
730.399	635.75
730.841	635.75
731.283	651.75
731.726	624.75
732.168	616.75
732.61	637.75
733.053	671.75
733.495	765.75
733.937	830.75
734.379	925.75
734.821	1129.75
735.263	1610.75
735.705	2673.75
736.148	4633.75
736.59	5401.75
737.032	4948.75
737.474	5437.75
737.916	2487.75
738.357	1173.75
738.799	813.75
739.241	688.75
739.683	706.75
740.125	708.75
740.567	706.75
741.008	721.75
741.45	784.75
741.892	813.75
742.334	835.75
742.775	813.75
743.217	817.75
