Data from 20170802-ORNL-NYSim-Air_HRD10391_10-36-25-599.txt Node
Date: Wed Aug 02 10:36:25 EDT 2017
User: Ender
Spectrometer: HR+D1039
Trigger mode: 0
Integration Time (sec): 3.750000E-3
Scans to average: 1
Electric dark correction enabled: true
Nonlinearity correction enabled: false
Boxcar width: 0
XAxis mode: Wavelengths
Number of Pixels in Spectrum: 2048
>>>>>Begin Spectral Data<<<<<
187.836	5.19
188.309	5.19
188.782	5.19
189.255	-8.81
189.728	-15.81
190.201	-10.81
190.674	-12.81
191.147	-19.81
191.619	-16.81
192.092	-11.81
192.565	-4.81
193.038	-3.81
193.511	19.19
193.984	2.19
194.456	8.19
194.929	21.19
195.402	26.19
195.874	23.19
196.347	7.19
196.82	32.19
197.292	28.19
197.765	25.19
198.237	30.19
198.71	37.19
199.182	45.19
199.655	50.19
200.127	65.19
200.6	47.19
201.072	53.19
201.544	65.19
202.017	74.19
202.489	79.19
202.961	64.19
203.433	55.19
203.906	80.19
204.378	71.19
204.85	68.19
205.322	85.19
205.794	75.19
206.266	81.19
206.739	82.19
207.211	79.19
207.683	98.19
208.155	78.19
208.627	95.19
209.099	67.19
209.57	73.19
210.042	78.19
210.514	70.19
210.986	75.19
211.458	80.19
211.93	79.19
212.402	88.19
212.873	85.19
213.345	79.19
213.817	85.19
214.288	92.19
214.76	82.19
215.232	76.19
215.703	94.19
216.175	80.19
216.646	84.19
217.118	91.19
217.589	95.19
218.061	86.19
218.532	63.19
219.004	85.19
219.475	71.19
219.946	75.19
220.418	85.19
220.889	85.19
221.36	84.19
221.832	83.19
222.303	70.19
222.774	94.19
223.245	85.19
223.717	85.19
224.188	84.19
224.659	71.19
225.13	67.19
225.601	78.19
226.072	82.19
226.543	78.19
227.014	79.19
227.485	86.19
227.956	87.19
228.427	85.19
228.898	61.19
229.369	83.19
229.839	71.19
230.31	83.19
230.781	73.19
231.252	89.19
231.722	80.19
232.193	93.19
232.664	85.19
233.135	87.19
233.605	84.19
234.076	79.19
234.546	76.19
235.017	87.19
235.487	91.19
235.958	86.19
236.428	75.19
236.899	93.19
237.369	91.19
237.84	86.19
238.31	81.19
238.78	73.19
239.251	73.19
239.721	74.19
240.191	100.19
240.662	85.19
241.132	85.19
241.602	87.19
242.072	86.19
242.542	90.19
243.013	80.19
243.483	91.19
243.953	99.19
244.423	79.19
244.893	82.19
245.363	94.19
245.833	84.19
246.303	93.19
246.773	92.19
247.243	75.19
247.712	87.19
248.182	89.19
248.652	89.19
249.122	90.19
249.592	85.19
250.061	100.19
250.531	98.19
251.001	72.19
251.471	88.19
251.94	104.19
252.41	84.19
252.879	75.19
253.349	101.19
253.818	109.19
254.288	115.19
254.757	94.19
255.227	81.19
255.696	92.19
256.166	82.19
256.635	66.19
257.105	93.19
257.574	102.19
258.043	98.19
258.513	110.19
258.982	83.19
259.451	93.19
259.92	95.19
260.389	102.19
260.859	105.19
261.328	101.19
261.797	103.19
262.266	107.19
262.735	115.19
263.204	103.19
263.673	94.19
264.142	90.19
264.611	106.19
265.08	100.19
265.549	102.19
266.018	98.19
266.487	125.19
266.955	103.19
267.424	93.19
267.893	74.19
268.362	101.19
268.83	99.19
269.299	85.19
269.768	111.19
270.236	109.19
270.705	100.19
271.174	107.19
271.642	89.19
272.111	99.19
272.579	126.19
273.048	104.19
273.516	101.19
273.985	111.19
274.453	108.19
274.922	100.19
275.39	114.19
275.858	117.19
276.327	121.19
276.795	113.19
277.263	123.19
277.731	108.19
278.2	105.19
278.668	130.19
279.136	118.19
279.604	121.19
280.072	128.19
280.54	115.19
281.008	122.19
281.477	105.19
281.945	119.19
282.413	115.19
282.881	107.19
283.348	139.19
283.816	98.19
284.284	131.19
284.752	129.19
285.22	115.19
285.688	116.19
286.156	123.19
286.623	121.19
287.091	119.19
287.559	119.19
288.026	124.19
288.494	123.19
288.962	121.19
289.429	129.19
289.897	114.19
290.364	119.19
290.832	123.19
291.3	131.19
291.767	141.19
292.234	120.19
292.702	117.19
293.169	138.19
293.637	131.19
294.104	124.19
294.571	128.19
295.039	132.19
295.506	115.19
295.973	141.19
296.44	122.19
296.908	138.19
297.375	152.19
297.842	129.19
298.309	149.19
298.776	149.19
299.243	128.19
299.71	128.19
300.177	133.19
300.644	159.19
301.111	149.19
301.578	133.19
302.045	145.19
302.512	147.19
302.979	136.19
303.446	135.19
303.913	149.19
304.379	149.19
304.846	155.19
305.313	135.19
305.78	137.19
306.246	153.19
306.713	151.19
307.18	143.19
307.646	160.19
308.113	155.19
308.579	156.19
309.046	157.19
309.512	153.19
309.979	146.19
310.445	173.19
310.912	140.19
311.378	168.19
311.845	165.19
312.311	156.19
312.777	161.19
313.244	151.19
313.71	149.19
314.176	155.19
314.642	161.19
315.109	179.19
315.575	158.19
316.041	163.19
316.507	180.19
316.973	172.19
317.439	175.19
317.905	169.19
318.371	165.19
318.837	170.19
319.303	181.19
319.769	168.19
320.235	169.19
320.701	176.19
321.167	178.19
321.633	182.19
322.099	170.19
322.564	183.19
323.03	191.19
323.496	180.19
323.962	176.19
324.427	181.19
324.893	181.19
325.359	207.19
325.824	185.19
326.29	193.19
326.755	170.19
327.221	187.19
327.686	191.19
328.152	211.19
328.617	180.19
329.083	216.19
329.548	191.19
330.014	194.19
330.479	207.19
330.944	213.19
331.41	214.19
331.875	198.19
332.34	206.19
332.805	195.19
333.271	199.19
333.736	207.19
334.201	204.19
334.666	205.19
335.131	208.19
335.596	190.19
336.061	206.19
336.526	245.19
336.991	203.19
337.456	218.19
337.921	210.19
338.386	214.19
338.851	208.19
339.316	221.19
339.781	212.19
340.246	211.19
340.711	212.19
341.175	197.19
341.64	212.19
342.105	241.19
342.569	209.19
343.034	234.19
343.499	235.19
343.963	238.19
344.428	240.19
344.893	224.19
345.357	237.19
345.822	240.19
346.286	257.19
346.751	243.19
347.215	252.19
347.679	267.19
348.144	253.19
348.608	254.19
349.073	266.19
349.537	274.19
350.001	281.19
350.465	274.19
350.93	278.19
351.394	287.19
351.858	277.19
352.322	285.19
352.786	260.19
353.25	260.19
353.715	298.19
354.179	288.19
354.643	297.19
355.107	271.19
355.571	278.19
356.035	294.19
356.498	308.19
356.962	295.19
357.426	304.19
357.89	289.19
358.354	272.19
358.818	289.19
359.281	287.19
359.745	289.19
360.209	303.19
360.673	272.19
361.136	288.19
361.6	273.19
362.064	302.19
362.527	300.19
362.991	301.19
363.454	302.19
363.918	311.19
364.381	298.19
364.845	297.19
365.308	313.19
365.772	333.19
366.235	299.19
366.698	305.19
367.162	313.19
367.625	304.19
368.088	310.19
368.552	334.19
369.015	293.19
369.478	321.19
369.941	311.19
370.404	298.19
370.867	323.19
371.331	309.19
371.794	321.19
372.257	314.19
372.72	319.19
373.183	299.19
373.646	322.19
374.109	335.19
374.572	311.19
375.035	344.19
375.497	350.19
375.96	350.19
376.423	356.19
376.886	387.19
377.349	355.19
377.811	383.19
378.274	345.19
378.737	350.19
379.199	374.19
379.662	359.19
380.125	361.19
380.587	354.19
381.05	379.19
381.512	383.19
381.975	391.19
382.437	390.19
382.9	380.19
383.362	396.19
383.825	373.19
384.287	402.19
384.75	400.19
385.212	393.19
385.674	383.19
386.136	408.19
386.599	403.19
387.061	388.19
387.523	414.19
387.985	399.19
388.447	417.19
388.91	415.19
389.372	412.19
389.834	410.19
390.296	402.19
390.758	412.19
391.22	416.19
391.682	409.19
392.144	402.19
392.606	425.19
393.068	423.19
393.529	420.19
393.991	429.19
394.453	426.19
394.915	405.19
395.377	427.19
395.838	420.19
396.3	427.19
396.762	400.19
397.224	410.19
397.685	411.19
398.147	444.19
398.608	418.19
399.07	421.19
399.531	425.19
399.993	475.19
400.454	467.19
400.916	462.19
401.377	469.19
401.839	461.19
402.3	492.19
402.762	471.19
403.223	520.19
403.684	524.19
404.145	490.19
404.607	482.19
405.068	480.19
405.529	485.19
405.99	490.19
406.451	506.19
406.913	480.19
407.374	498.19
407.835	474.19
408.296	470.19
408.757	481.19
409.218	482.19
409.679	498.19
410.14	519.19
410.601	535.19
411.062	522.19
411.522	527.19
411.983	573.19
412.444	565.19
412.905	574.19
413.366	609.19
413.826	627.19
414.287	717.19
414.748	841.19
415.208	844.19
415.669	734.19
416.13	661.19
416.59	630.19
417.051	670.19
417.511	690.19
417.972	758.19
418.432	768.19
418.893	890.19
419.353	851.19
419.814	632.19
420.274	603.19
420.734	581.19
421.195	603.19
421.655	590.19
422.115	599.19
422.576	629.19
423.036	655.19
423.496	636.19
423.956	648.19
424.416	691.19
424.876	792.19
425.336	775.19
425.797	776.19
426.257	713.19
426.717	697.19
427.177	630.19
427.637	634.19
428.097	631.19
428.556	645.19
429.016	695.19
429.476	666.19
429.936	655.19
430.396	631.19
430.856	631.19
431.315	647.19
431.775	692.19
432.235	765.19
432.694	739.19
433.154	729.19
433.614	675.19
434.073	698.19
434.533	622.19
434.993	641.19
435.452	639.19
435.912	637.19
436.371	640.19
436.83	647.19
437.29	623.19
437.749	623.19
438.209	636.19
438.668	661.19
439.127	689.19
439.587	668.19
440.046	665.19
440.505	650.19
440.964	634.19
441.424	689.19
441.883	682.19
442.342	672.19
442.801	663.19
443.26	669.19
443.719	685.19
444.178	675.19
444.637	680.19
445.096	686.19
445.555	714.19
446.014	683.19
446.473	673.19
446.932	690.19
447.391	715.19
447.849	686.19
448.308	703.19
448.767	705.19
449.226	721.19
449.685	728.19
450.143	763.19
450.602	760.19
451.061	730.19
451.519	739.19
451.978	718.19
452.436	717.19
452.895	725.19
453.353	703.19
453.812	681.19
454.27	740.19
454.729	719.19
455.187	695.19
455.646	707.19
456.104	722.19
456.562	705.19
457.021	755.19
457.479	735.19
457.937	741.19
458.395	757.19
458.854	745.19
459.312	739.19
459.77	717.19
460.228	755.19
460.686	779.19
461.144	778.19
461.602	754.19
462.06	746.19
462.518	756.19
462.976	765.19
463.434	778.19
463.892	763.19
464.35	809.19
464.808	803.19
465.266	834.19
465.724	803.19
466.181	821.19
466.639	831.19
467.097	869.19
467.555	887.19
468.012	861.19
468.47	903.19
468.928	891.19
469.385	941.19
469.843	907.19
470.3	913.19
470.758	937.19
471.215	940.19
471.673	976.19
472.13	1004.19
472.588	985.19
473.045	965.19
473.503	1008.19
473.96	1021.19
474.417	1041.19
474.875	1072.19
475.332	1123.19
475.789	1101.19
476.246	1151.19
476.704	1144.19
477.161	1181.19
477.618	1157.19
478.075	1184.19
478.532	1195.19
478.989	1229.19
479.446	1325.19
479.903	1289.19
480.36	1316.19
480.817	1349.19
481.274	1336.19
481.731	1386.19
482.188	1420.19
482.645	1426.19
483.102	1440.19
483.558	1490.19
484.015	1507.19
484.472	1525.19
484.929	1511.19
485.385	1501.19
485.842	1482.19
486.299	1547.19
486.755	1525.19
487.212	1490.19
487.668	1455.19
488.125	1448.19
488.582	1462.19
489.038	1449.19
489.494	1465.19
489.951	1535.19
490.407	1494.19
490.864	1502.19
491.32	1511.19
491.776	1478.19
492.233	1507.19
492.689	1493.19
493.145	1479.19
493.602	1445.19
494.058	1509.19
494.514	1515.19
494.97	1544.19
495.426	1557.19
495.882	1510.19
496.338	1561.19
496.794	1572.19
497.251	1584.19
497.707	1615.19
498.163	1606.19
498.618	1641.19
499.074	1589.19
499.53	1590.19
499.986	1634.19
500.442	1646.19
500.898	1655.19
501.354	1627.19
501.809	1647.19
502.265	1653.19
502.721	1641.19
503.177	1626.19
503.632	1638.19
504.088	1655.19
504.543	1658.19
504.999	1688.19
505.455	1703.19
505.91	1678.19
506.366	1731.19
506.821	1639.19
507.277	1695.19
507.732	1713.19
508.187	1667.19
508.643	1691.19
509.098	1769.19
509.553	1737.19
510.009	1706.19
510.464	1778.19
510.919	1826.19
511.375	1806.19
511.83	1848.19
512.285	1863.19
512.74	1860.19
513.195	1946.19
513.65	1943.19
514.105	1959.19
514.56	2005.19
515.015	1993.19
515.47	2055.19
515.925	2035.19
516.38	1993.19
516.835	2036.19
517.29	2014.19
517.745	2034.19
518.2	1984.19
518.655	1992.19
519.109	1921.19
519.564	1929.19
520.019	1905.19
520.474	1897.19
520.928	1841.19
521.383	1877.19
521.838	1893.19
522.292	1833.19
522.747	1817.19
523.201	1843.19
523.656	1805.19
524.11	1822.19
524.565	1743.19
525.019	1755.19
525.474	1813.19
525.928	1760.19
526.382	1800.19
526.837	1786.19
527.291	1779.19
527.745	1786.19
528.2	1768.19
528.654	1724.19
529.108	1745.19
529.562	1739.19
530.016	1767.19
530.47	1744.19
530.925	1793.19
531.379	1742.19
531.833	1773.19
532.287	1789.19
532.741	1773.19
533.195	1771.19
533.649	1803.19
534.103	1775.19
534.556	1754.19
535.01	1786.19
535.464	1767.19
535.918	1779.19
536.372	1772.19
536.826	1796.19
537.279	1787.19
537.733	1775.19
538.187	1781.19
538.64	1779.19
539.094	1778.19
539.548	1844.19
540.001	1809.19
540.455	1830.19
540.908	1783.19
541.362	1845.19
541.815	1825.19
542.269	1957.19
542.722	1904.19
543.175	1941.19
543.629	1927.19
544.082	1919.19
544.536	1971.19
544.989	1964.19
545.442	1927.19
545.895	1955.19
546.349	2013.19
546.802	2017.19
547.255	2014.19
547.708	1994.19
548.161	2067.19
548.614	2043.19
549.067	2025.19
549.52	2050.19
549.973	2046.19
550.426	1969.19
550.879	2033.19
551.332	2009.19
551.785	1991.19
552.238	2027.19
552.691	2024.19
553.144	2051.19
553.596	2068.19
554.049	2090.19
554.502	2159.19
554.955	2171.19
555.407	2240.19
555.86	2195.19
556.313	2152.19
556.765	2122.19
557.218	2153.19
557.67	2143.19
558.123	2078.19
558.576	2087.19
559.028	2162.19
559.48	2135.19
559.933	2088.19
560.385	2055.19
560.838	1986.19
561.29	1929.19
561.742	1897.19
562.195	1880.19
562.647	1870.19
563.099	1821.19
563.551	1868.19
564.004	1894.19
564.456	1863.19
564.908	1799.19
565.36	1748.19
565.812	1748.19
566.264	1694.19
566.716	1703.19
567.168	1665.19
567.62	1671.19
568.072	1644.19
568.524	1646.19
568.976	1632.19
569.428	1611.19
569.88	1616.19
570.332	1635.19
570.784	1651.19
571.235	1606.19
571.687	1637.19
572.139	1641.19
572.59	1647.19
573.042	1661.19
573.494	1668.19
573.945	1640.19
574.397	1559.19
574.849	1619.19
575.3	1624.19
575.752	1578.19
576.203	1589.19
576.655	1579.19
577.106	1577.19
577.557	1549.19
578.009	1534.19
578.46	1577.19
578.912	1554.19
579.363	1533.19
579.814	1551.19
580.265	1547.19
580.717	1565.19
581.168	1551.19
581.619	1544.19
582.07	1563.19
582.521	1542.19
582.972	1596.19
583.423	1559.19
583.875	1558.19
584.326	1575.19
584.777	1606.19
585.227	1591.19
585.678	1643.19
586.129	1664.19
586.58	1662.19
587.031	1693.19
587.482	1791.19
587.933	1774.19
588.384	1773.19
588.834	1772.19
589.285	1788.19
589.736	1706.19
590.186	1773.19
590.637	1773.19
591.088	1720.19
591.538	1641.19
591.989	1635.19
592.439	1622.19
592.89	1583.19
593.34	1603.19
593.791	1594.19
594.241	1580.19
594.692	1526.19
595.142	1590.19
595.593	1587.19
596.043	1569.19
596.493	1596.19
596.943	1532.19
597.394	1593.19
597.844	1662.19
598.294	1746.19
598.744	1739.19
599.195	1815.19
599.645	1889.19
600.095	2041.19
600.545	2135.19
600.995	2175.19
601.445	2343.19
601.895	2439.19
602.345	2541.19
602.795	2523.19
603.245	2423.19
603.695	2243.19
604.145	2130.19
604.594	2005.19
605.044	1899.19
605.494	1786.19
605.944	1683.19
606.393	1632.19
606.843	1607.19
607.293	1571.19
607.743	1611.19
608.192	1623.19
608.642	1586.19
609.091	1583.19
609.541	1601.19
609.99	1626.19
610.44	1589.19
610.889	1611.19
611.339	1582.19
611.788	1539.19
612.238	1553.19
612.687	1548.19
613.136	1537.19
613.586	1524.19
614.035	1552.19
614.484	1562.19
614.933	1576.19
615.383	1557.19
615.832	1517.19
616.281	1516.19
616.73	1491.19
617.179	1417.19
617.628	1408.19
618.077	1391.19
618.526	1380.19
618.975	1375.19
619.424	1347.19
619.873	1352.19
620.322	1354.19
620.771	1328.19
621.22	1298.19
621.669	1257.19
622.118	1271.19
622.567	1259.19
623.015	1213.19
623.464	1209.19
623.913	1199.19
624.361	1202.19
624.81	1181.19
625.259	1203.19
625.707	1175.19
626.156	1195.19
626.604	1187.19
627.053	1198.19
627.501	1188.19
627.95	1245.19
628.398	1267.19
628.847	1240.19
629.295	1241.19
629.744	1207.19
630.192	1193.19
630.64	1189.19
631.089	1130.19
631.537	1145.19
631.985	1113.19
632.433	1128.19
632.881	1112.19
633.33	1125.19
633.778	1103.19
634.226	1125.19
634.674	1142.19
635.122	1112.19
635.57	1130.19
636.018	1124.19
636.466	1139.19
636.914	1153.19
637.362	1180.19
637.81	1150.19
638.258	1182.19
638.705	1195.19
639.153	1235.19
639.601	1283.19
640.049	1336.19
640.497	1356.19
640.944	1395.19
641.392	1315.19
641.84	1262.19
642.287	1157.19
642.735	1077.19
643.182	1091.19
643.63	1048.19
644.078	1049.19
644.525	1089.19
644.973	1101.19
645.42	1076.19
645.867	1063.19
646.315	1078.19
646.762	1093.19
647.21	1089.19
647.657	1102.19
648.104	1068.19
648.551	1033.19
648.999	1070.19
649.446	1051.19
649.893	1068.19
650.34	1046.19
650.787	1068.19
651.234	1104.19
651.682	1167.19
652.129	1261.19
652.576	1432.19
653.023	1639.19
653.47	1775.19
653.917	1841.19
654.363	1912.19
654.81	1953.19
655.257	2105.19
655.704	1788.19
656.151	1389.19
656.598	1147.19
657.044	1053.19
657.491	1065.19
657.938	1017.19
658.385	1001.19
658.831	1007.19
659.278	990.19
659.724	994.19
660.171	989.19
660.618	972.19
661.064	931.19
661.511	912.19
661.957	945.19
662.404	949.19
662.85	959.19
663.296	943.19
663.743	972.19
664.189	933.19
664.635	993.19
665.082	979.19
665.528	948.19
665.974	965.19
666.42	919.19
666.867	942.19
667.313	916.19
667.759	875.19
668.205	883.19
668.651	888.19
669.097	887.19
669.543	896.19
669.989	889.19
670.435	887.19
670.881	915.19
671.327	928.19
671.773	1029.19
672.219	1065.19
672.665	1155.19
673.11	1214.19
673.556	1257.19
674.002	1287.19
674.448	1357.19
674.893	1159.19
675.339	1027.19
675.785	926.19
676.23	875.19
676.676	871.19
677.122	839.19
677.567	841.19
678.013	759.19
678.458	785.19
678.904	754.19
679.349	749.19
679.794	754.19
680.24	758.19
680.685	744.19
681.131	749.19
681.576	739.19
682.021	773.19
682.466	741.19
682.912	764.19
683.357	768.19
683.802	829.19
684.247	924.19
684.692	1013.19
685.137	1043.19
685.583	1116.19
686.028	1109.19
686.473	1094.19
686.918	991.19
687.363	882.19
687.807	833.19
688.252	819.19
688.697	770.19
689.142	715.19
689.587	749.19
690.032	761.19
690.477	755.19
690.921	809.19
691.366	835.19
691.811	883.19
692.255	909.19
692.7	1100.19
693.145	1410.19
693.589	2195.19
694.034	3016.19
694.478	3305.19
694.923	3043.19
695.367	3753.19
695.812	3395.19
696.256	1339.19
696.701	875.19
697.145	769.19
697.59	739.19
698.034	718.19
698.478	717.19
698.922	696.19
699.367	733.19
699.811	747.19
700.255	839.19
700.699	887.19
701.143	978.19
701.588	1057.19
702.032	1145.19
702.476	1125.19
702.92	1116.19
703.364	1306.19
703.808	1986.19
704.252	2773.19
704.696	3167.19
705.14	2933.19
705.584	3736.19
706.027	2943.19
706.471	1329.19
706.915	889.19
707.359	810.19
707.803	741.19
708.246	686.19
708.69	669.19
709.134	677.19
709.577	699.19
710.021	703.19
710.465	701.19
710.908	687.19
711.352	685.19
711.795	708.19
712.239	849.19
712.682	857.19
713.126	845.19
713.569	901.19
714.012	834.19
714.456	700.19
714.899	640.19
715.342	632.19
715.786	610.19
716.229	580.19
716.672	585.19
717.115	562.19
717.558	588.19
718.002	604.19
718.445	634.19
718.888	609.19
719.331	653.19
719.774	678.19
720.217	647.19
720.66	649.19
721.103	597.19
721.546	562.19
721.989	565.19
722.432	532.19
722.874	555.19
723.317	567.19
723.76	570.19
724.203	641.19
724.645	887.19
725.088	1098.19
725.531	1159.19
725.974	1159.19
726.416	1216.19
726.859	780.19
727.301	584.19
727.744	544.19
728.187	543.19
728.629	558.19
729.071	600.19
729.514	602.19
729.956	602.19
730.399	630.19
730.841	643.19
731.283	618.19
731.726	601.19
732.168	597.19
732.61	636.19
733.053	709.19
733.495	775.19
733.937	804.19
734.379	956.19
734.821	1091.19
735.263	1528.19
735.705	2674.19
736.148	4523.19
736.59	5294.19
737.032	4912.19
737.474	5311.19
737.916	2453.19
738.357	1147.19
738.799	828.19
739.241	707.19
739.683	691.19
740.125	690.19
740.567	716.19
741.008	732.19
741.45	759.19
741.892	808.19
742.334	819.19
742.775	819.19
743.217	804.19
