Data from 20170906_ORNL-Torch-Sil_Subt14_14-32-47-794.txt Node
Date: Wed Sep 06 14:32:47 EDT 2017
User: Ender
Spectrometer: HR+D1039
Trigger mode: 0
Integration Time (sec): 1.676000E-2
Scans to average: 10
Electric dark correction enabled: true
Nonlinearity correction enabled: false
Boxcar width: 0
XAxis mode: Wavelengths
Number of Pixels in Spectrum: 2048
>>>>>Begin Spectral Data<<<<<
187.836	33.84
188.309	33.84
188.782	33.84
189.255	35.14
189.728	44.04
190.201	-24.56
190.674	5.84
191.147	10.34
191.619	-0.96
192.092	1.84
192.565	-28.86
193.038	4.24
193.511	-3.06
193.984	-1.06
194.456	-3.26
194.929	-29.66
195.402	-27.76
195.874	-16.06
196.347	3.14
196.82	-1.36
197.292	-21.96
197.765	-4.96
198.237	-32.36
198.71	-0.06
199.182	7.64
199.655	10.84
200.127	-3.56
200.6	-4.86
201.072	4.64
201.544	-41.36
202.017	5.04
202.489	11.24
202.961	0.44
203.433	-2.86
203.906	-1.96
204.378	-0.16
204.85	2.14
205.322	-1.56
205.794	-1.86
206.266	-40.36
206.739	-5.26
207.211	-20.26
207.683	3.44
208.155	-11.76
208.627	8.44
209.099	-20.16
209.57	-5.76
210.042	-0.36
210.514	3.14
210.986	-2.56
211.458	-4.86
211.93	-13.66
212.402	1.74
212.873	-2.06
213.345	-10.16
213.817	-5.56
214.288	-10.86
214.76	-9.26
215.232	10.74
215.703	-10.06
216.175	7.84
216.646	7.24
217.118	-46.86
217.589	-6.86
218.061	12.74
218.532	-1.66
219.004	9.94
219.475	12.84
219.946	-3.16
220.418	7.64
220.889	5.74
221.36	-5.56
221.832	19.04
222.303	15.74
222.774	3.24
223.245	-2.36
223.717	-10.36
224.188	-12.56
224.659	-4.86
225.13	5.84
225.601	2.94
226.072	-2.36
226.543	5.94
227.014	18.14
227.485	5.24
227.956	-3.46
228.427	20.94
228.898	21.94
229.369	1.24
229.839	10.04
230.31	12.84
230.781	14.54
231.252	24.64
231.722	9.64
232.193	13.84
232.664	11.94
233.135	15.04
233.605	4.64
234.076	-8.26
234.546	29.14
235.017	23.74
235.487	22.74
235.958	22.54
236.428	32.44
236.899	26.74
237.369	23.74
237.84	2.84
238.31	16.74
238.78	23.94
239.251	26.04
239.721	33.84
240.191	22.34
240.662	19.54
241.132	34.44
241.602	24.34
242.072	36.84
242.542	39.54
243.013	46.44
243.483	41.74
243.953	-2.66
244.423	33.64
244.893	42.24
245.363	-4.26
245.833	-34.86
246.303	30.54
246.773	31.24
247.243	44.04
247.712	42.14
248.182	46.34
248.652	45.14
249.122	50.34
249.592	49.44
250.061	58.44
250.531	77.04
251.001	66.44
251.471	45.84
251.94	41.14
252.41	55.64
252.879	40.54
253.349	54.04
253.818	40.04
254.288	51.14
254.757	52.14
255.227	54.44
255.696	51.44
256.166	24.74
256.635	50.94
257.105	30.64
257.574	43.74
258.043	49.84
258.513	58.04
258.982	58.14
259.451	60.34
259.92	54.24
260.389	50.24
260.859	69.24
261.328	52.74
261.797	71.24
262.266	72.24
262.735	71.34
263.204	29.14
263.673	69.54
264.142	66.84
264.611	51.64
265.08	79.34
265.549	68.14
266.018	76.54
266.487	59.04
266.955	69.14
267.424	84.74
267.893	59.54
268.362	58.44
268.83	65.54
269.299	77.54
269.768	68.64
270.236	82.04
270.705	55.14
271.174	71.04
271.642	77.24
272.111	76.04
272.579	94.44
273.048	85.14
273.516	91.64
273.985	84.14
274.453	60.74
274.922	66.54
275.39	76.84
275.858	84.94
276.327	84.14
276.795	88.84
277.263	98.54
277.731	108.84
278.2	109.64
278.668	90.74
279.136	89.74
279.604	100.84
280.072	102.84
280.54	109.84
281.008	97.04
281.477	101.14
281.945	108.34
282.413	91.14
282.881	102.74
283.348	79.44
283.816	109.74
284.284	83.74
284.752	111.94
285.22	107.94
285.688	117.94
286.156	115.94
286.623	124.84
287.091	127.64
287.559	109.54
288.026	97.44
288.494	113.64
288.962	92.04
289.429	121.14
289.897	120.44
290.364	124.34
290.832	127.04
291.3	122.54
291.767	115.44
292.234	125.14
292.702	100.64
293.169	116.64
293.637	118.94
294.104	114.24
294.571	131.64
295.039	131.24
295.506	123.14
295.973	119.74
296.44	124.04
296.908	140.34
297.375	147.14
297.842	140.74
298.309	137.24
298.776	122.14
299.243	154.24
299.71	149.74
300.177	140.14
300.644	143.74
301.111	133.34
301.578	139.54
302.045	101.24
302.512	155.84
302.979	141.14
303.446	150.84
303.913	150.14
304.379	153.54
304.846	147.44
305.313	149.24
305.78	175.64
306.246	161.94
306.713	165.64
307.18	161.14
307.646	176.94
308.113	178.34
308.579	161.24
309.046	174.94
309.512	174.64
309.979	172.24
310.445	192.44
310.912	184.94
311.378	191.34
311.845	190.94
312.311	202.24
312.777	188.74
313.244	201.94
313.71	208.84
314.176	211.94
314.642	211.64
315.109	197.24
315.575	208.44
316.041	199.44
316.507	208.04
316.973	210.64
317.439	206.34
317.905	217.14
318.371	198.74
318.837	216.94
319.303	221.04
319.769	208.34
320.235	217.34
320.701	205.44
321.167	211.34
321.633	230.84
322.099	244.84
322.564	240.84
323.03	196.44
323.496	223.44
323.962	234.24
324.427	242.44
324.893	219.14
325.359	244.74
325.824	243.34
326.29	249.64
326.755	248.54
327.221	256.24
327.686	250.34
328.152	255.04
328.617	265.04
329.083	258.74
329.548	276.34
330.014	269.04
330.479	282.54
330.944	277.34
331.41	269.34
331.875	266.64
332.34	263.54
332.805	268.94
333.271	275.24
333.736	278.24
334.201	277.64
334.666	295.14
335.131	298.84
335.596	289.74
336.061	290.74
336.526	284.04
336.991	273.54
337.456	287.74
337.921	285.04
338.386	284.24
338.851	284.34
339.316	288.34
339.781	272.04
340.246	287.44
340.711	289.74
341.175	311.94
341.64	304.34
342.105	311.44
342.569	314.04
343.034	325.44
343.499	323.14
343.963	293.74
344.428	330.54
344.893	341.34
345.357	346.64
345.822	348.04
346.286	349.84
346.751	351.94
347.215	364.04
347.679	389.34
348.144	387.54
348.608	384.24
349.073	400.84
349.537	392.44
350.001	411.04
350.465	396.34
350.93	406.34
351.394	424.74
351.858	412.64
352.322	420.24
352.786	404.14
353.25	389.24
353.715	441.34
354.179	463.64
354.643	463.84
355.107	463.84
355.571	442.54
356.035	454.84
356.498	451.34
356.962	458.94
357.426	425.14
357.89	446.64
358.354	429.14
358.818	429.94
359.281	446.44
359.745	450.24
360.209	448.14
360.673	415.84
361.136	451.14
361.6	436.94
362.064	462.14
362.527	469.24
362.991	449.34
363.454	455.34
363.918	454.14
364.381	464.04
364.845	467.54
365.308	481.24
365.772	489.34
366.235	488.14
366.698	473.84
367.162	477.14
367.625	483.94
368.088	504.04
368.552	494.44
369.015	476.54
369.478	489.34
369.941	492.84
370.404	505.44
370.867	508.34
371.331	516.94
371.794	502.04
372.257	514.34
372.72	527.74
373.183	528.24
373.646	507.44
374.109	522.74
374.572	519.74
375.035	525.44
375.497	467.74
375.96	540.84
376.423	555.84
376.886	554.14
377.349	550.04
377.811	561.94
378.274	559.14
378.737	562.54
379.199	566.14
379.662	581.64
380.125	557.14
380.587	595.54
381.05	589.24
381.512	602.74
381.975	614.94
382.437	634.34
382.9	627.04
383.362	618.14
383.825	608.44
384.287	627.84
384.75	626.84
385.212	636.14
385.674	622.04
386.136	651.54
386.599	643.14
387.061	652.04
387.523	662.64
387.985	657.84
388.447	673.24
388.91	662.34
389.372	686.14
389.834	690.34
390.296	668.24
390.758	687.54
391.22	726.94
391.682	811.64
392.144	846.44
392.606	721.04
393.068	710.24
393.529	759.14
393.991	732.74
394.453	693.54
394.915	723.14
395.377	753.74
395.838	734.54
396.3	684.34
396.762	695.64
397.224	687.14
397.685	708.64
398.147	704.34
398.608	716.04
399.07	727.14
399.531	720.84
399.993	744.64
400.454	751.34
400.916	750.24
401.377	774.24
401.839	760.44
402.3	764.14
402.762	835.64
403.223	854.54
403.684	761.34
404.145	781.84
404.607	767.04
405.068	767.74
405.529	761.94
405.99	778.04
406.451	780.04
406.913	774.94
407.374	782.54
407.835	776.44
408.296	795.54
408.757	798.34
409.218	821.64
409.679	871.84
410.14	866.84
410.601	893.94
411.062	904.94
411.522	923.64
411.983	919.64
412.444	956.34
412.905	998.24
413.366	1031.44
413.826	1141.24
414.287	1400.94
414.748	1495.24
415.208	1274.24
415.669	1120.34
416.13	1076.64
416.59	1123.84
417.051	1118.34
417.511	1184.34
417.972	1296.54
418.432	1501.74
418.893	1504.14
419.353	1156.94
419.814	1005.24
420.274	990.94
420.734	993.44
421.195	1027.84
421.655	1006.44
422.115	1015.84
422.576	980.84
423.036	1028.34
423.496	1077.64
423.956	1127.44
424.416	1218.04
424.876	1309.34
425.336	1212.64
425.797	1202.74
426.257	1126.14
426.717	1027.74
427.177	978.24
427.637	1021.14
428.097	1059.84
428.556	1074.64
429.016	1099.74
429.476	1030.94
429.936	1040.34
430.396	1019.74
430.856	1029.94
431.315	1044.94
431.775	1225.04
432.235	1242.54
432.694	1121.04
433.154	1156.44
433.614	1119.64
434.073	1017.44
434.533	998.24
434.993	1002.34
435.452	1027.04
435.912	1038.94
436.371	1050.14
436.83	1032.64
437.29	1017.94
437.749	1026.14
438.209	1042.44
438.668	1068.44
439.127	1062.04
439.587	1079.44
440.046	1055.24
440.505	1078.34
440.964	1105.74
441.424	1128.44
441.883	1120.64
442.342	1055.04
442.801	1043.74
443.26	1059.04
443.719	1063.64
444.178	1066.34
444.637	1098.44
445.096	1106.74
445.555	1097.14
446.014	1073.24
446.473	1085.54
446.932	1099.94
447.391	1107.44
447.849	1122.94
448.308	1110.04
448.767	1094.14
449.226	1151.64
449.685	1177.94
450.143	1193.14
450.602	1174.34
451.061	1131.94
451.519	1100.34
451.978	1126.44
452.436	1114.94
452.895	1130.34
453.353	1127.64
453.812	1096.94
454.27	1133.04
454.729	1113.54
455.187	1137.04
455.646	1130.64
456.104	1134.34
456.562	1147.44
457.021	1144.04
457.479	1124.44
457.937	1151.24
458.395	1169.54
458.854	1143.14
459.312	1152.54
459.77	1168.24
460.228	1176.34
460.686	1202.54
461.144	1190.14
461.602	1183.54
462.06	1170.34
462.518	1184.64
462.976	1196.64
463.434	1236.44
463.892	1255.74
464.35	1270.74
464.808	1253.14
465.266	1267.14
465.724	1304.94
466.181	1319.14
466.639	1280.34
467.097	1361.94
467.555	1418.04
468.012	1384.94
468.47	1417.24
468.928	1458.84
469.385	1482.84
469.843	1502.24
470.3	1477.84
470.758	1534.64
471.215	1551.04
471.673	1573.64
472.13	1610.24
472.588	1606.24
473.045	1620.44
473.503	1668.34
473.96	1703.24
474.417	1696.84
474.875	1786.14
475.332	1816.84
475.789	1792.24
476.246	1852.24
476.704	1874.74
477.161	1886.34
477.618	1903.74
478.075	1915.84
478.532	2015.94
478.989	2119.74
479.446	2138.04
479.903	2051.84
480.36	2133.34
480.817	2129.14
481.274	2143.54
481.731	2199.54
482.188	2203.54
482.645	2234.84
483.102	2288.44
483.558	2323.44
484.015	2343.94
484.472	2329.84
484.929	2366.34
485.385	2373.84
485.842	2353.34
486.299	2444.34
486.755	2409.14
487.212	2309.54
487.668	2303.54
488.125	2316.54
488.582	2274.94
489.038	2298.34
489.494	2316.84
489.951	2321.94
490.407	2345.44
490.864	2333.74
491.32	2329.74
491.776	2361.44
492.233	2370.74
492.689	2344.74
493.145	2372.34
493.602	2344.34
494.058	2376.04
494.514	2398.74
494.97	2435.94
495.426	2464.34
495.882	2427.24
496.338	2422.54
496.794	2449.04
497.251	2454.44
497.707	2480.54
498.163	2514.94
498.618	2522.94
499.074	2506.84
499.53	2557.94
499.986	2548.54
500.442	2549.94
500.898	2521.54
501.354	2547.24
501.809	2577.44
502.265	2546.74
502.721	2568.54
503.177	2579.64
503.632	2576.04
504.088	2595.44
504.543	2643.94
504.999	2625.94
505.455	2625.54
505.91	2582.14
506.366	2620.64
506.821	2607.14
507.277	2601.24
507.732	2627.84
508.187	2632.94
508.643	2661.04
509.098	2673.34
509.553	2704.64
510.009	2734.54
510.464	2792.24
510.919	2794.24
511.375	2854.64
511.83	2886.34
512.285	2924.04
512.74	2986.74
513.195	3004.94
513.65	3061.44
514.105	3107.44
514.56	3110.54
515.015	3151.04
515.47	3108.34
515.925	3061.24
516.38	3079.74
516.835	3089.04
517.29	3065.94
517.745	3044.24
518.2	2976.84
518.655	2920.04
519.109	2890.94
519.564	2851.94
520.019	2828.44
520.474	2804.64
520.928	2768.34
521.383	2771.84
521.838	2760.04
522.292	2729.54
522.747	2725.74
523.201	2725.44
523.656	2686.34
524.11	2650.74
524.565	2652.14
525.019	2671.84
525.474	2654.84
525.928	2625.54
526.382	2622.54
526.837	2621.14
527.291	2627.84
527.745	2625.84
528.2	2623.24
528.654	2567.84
529.108	2581.74
529.562	2587.44
530.016	2563.04
530.47	2608.44
530.925	2578.34
531.379	2574.84
531.833	2627.24
532.287	2603.24
532.741	2578.74
533.195	2581.64
533.649	2603.54
534.103	2603.14
534.556	2580.54
535.01	2587.74
535.464	2577.54
535.918	2556.64
536.372	2577.24
536.826	2592.14
537.279	2583.44
537.733	2584.04
538.187	2595.24
538.64	2619.94
539.094	2595.04
539.548	2649.64
540.001	2659.24
540.455	2665.44
540.908	2700.44
541.362	2748.84
541.815	2761.24
542.269	2790.94
542.722	2785.84
543.175	2782.94
543.629	2808.34
544.082	2868.04
544.536	2894.04
544.989	2909.04
545.442	2908.84
545.895	2916.84
546.349	2898.34
546.802	2896.64
547.255	2890.94
547.708	2938.74
548.161	2952.74
548.614	2962.54
549.067	2950.84
549.52	2914.14
549.973	2899.04
550.426	2891.44
550.879	2895.94
551.332	2912.74
551.785	2958.74
552.238	2970.34
552.691	2980.74
553.144	3009.54
553.596	3040.24
554.049	3088.04
554.502	3167.04
554.955	3184.64
555.407	3165.04
555.86	3167.94
556.313	3138.34
556.765	3077.94
557.218	3045.44
557.67	2994.94
558.123	2983.94
558.576	2924.84
559.028	2964.64
559.48	2997.84
559.933	2917.34
560.385	2812.84
560.838	2714.34
561.29	2666.34
561.742	2634.74
562.195	2615.44
562.647	2596.84
563.099	2555.94
563.551	2579.54
564.004	2596.64
564.456	2509.34
564.908	2459.94
565.36	2416.54
565.812	2364.94
566.264	2338.64
566.716	2336.04
567.168	2305.64
567.62	2314.24
568.072	2277.14
568.524	2286.74
568.976	2246.54
569.428	2264.54
569.88	2237.94
570.332	2285.54
570.784	2253.54
571.235	2239.34
571.687	2268.54
572.139	2254.24
572.59	2278.34
573.042	2284.54
573.494	2261.34
573.945	2200.04
574.397	2179.44
574.849	2149.04
575.3	2155.44
575.752	2144.44
576.203	2132.64
576.655	2158.14
577.106	2115.04
577.557	2105.84
578.009	2085.44
578.46	2110.34
578.912	2084.84
579.363	2112.64
579.814	2093.54
580.265	2097.94
580.717	2104.54
581.168	2107.34
581.619	2116.84
582.07	2146.04
582.521	2113.24
582.972	2137.24
583.423	2176.14
583.875	2270.84
584.326	2403.84
584.777	2565.34
585.227	2603.64
585.678	2564.04
586.129	2600.54
586.58	2592.34
587.031	2649.94
587.482	2956.74
587.933	2998.34
588.384	2819.44
588.834	2436.44
589.285	2351.24
589.736	2362.04
590.186	2368.64
590.637	2311.84
591.088	2255.64
591.538	2210.24
591.989	2180.84
592.439	2163.04
592.89	2120.34
593.34	2137.74
593.791	2138.54
594.241	2103.74
594.692	2102.34
595.142	2103.44
595.593	2114.44
596.043	2131.64
596.493	2171.14
596.943	2186.14
597.394	2254.04
597.844	2331.24
598.294	2436.64
598.744	2573.94
599.195	2735.94
599.645	2876.04
600.095	2990.84
600.545	3092.84
600.995	3140.44
601.445	3232.64
601.895	3372.14
602.345	3352.54
602.795	3188.94
603.245	2990.84
603.695	2773.44
604.145	2645.14
604.594	2550.74
605.044	2408.34
605.494	2267.64
605.944	2199.04
606.393	2164.24
606.843	2154.24
607.293	2160.44
607.743	2123.14
608.192	2138.24
608.642	2114.34
609.091	2104.24
609.541	2108.54
609.99	2119.74
610.44	2045.24
610.889	2020.64
611.339	2013.04
611.788	1992.74
612.238	1995.34
612.687	2013.04
613.136	2012.04
613.586	2039.54
614.035	1975.34
614.484	1987.24
614.933	1966.94
615.383	1905.34
615.832	1896.74
616.281	1875.74
616.73	1839.24
617.179	1815.44
617.628	1795.44
618.077	1761.84
618.526	1737.94
618.975	1720.94
619.424	1682.74
619.873	1684.94
620.322	1679.34
620.771	1652.64
621.22	1604.04
621.669	1586.14
622.118	1573.74
622.567	1540.74
623.015	1555.94
623.464	1529.14
623.913	1507.54
624.361	1523.54
624.81	1528.04
625.259	1530.14
625.707	1531.74
626.156	1552.84
626.604	1570.34
627.053	1567.94
627.501	1559.14
627.95	1569.84
628.398	1564.74
628.847	1535.44
629.295	1528.44
629.744	1531.64
630.192	1478.64
630.64	1431.84
631.089	1427.34
631.537	1281.44
631.985	1381.64
632.433	1401.74
632.881	1402.64
633.33	1414.64
633.778	1407.94
634.226	1408.24
634.674	1428.04
635.122	1416.44
635.57	1454.44
636.018	1468.24
636.466	1444.44
636.914	1469.34
637.362	1554.14
637.81	1600.04
638.258	1601.84
638.705	1614.04
639.153	1618.34
639.601	1569.44
640.049	1578.74
640.497	1668.34
640.944	1627.34
641.392	1501.54
641.84	1412.44
642.287	1348.54
642.735	1330.24
643.182	1307.04
643.63	1279.44
644.078	1302.14
644.525	1281.94
644.973	1291.14
645.42	1276.94
645.867	1284.34
646.315	1260.34
646.762	1281.64
647.21	1269.24
647.657	1264.74
648.104	1253.54
648.551	1213.54
648.999	1237.04
649.446	1245.14
649.893	1247.74
650.34	1290.54
650.787	1347.94
651.234	1428.94
651.682	1576.64
652.129	1733.74
652.576	1831.14
653.023	1882.54
653.47	1849.64
653.917	1805.54
654.363	1814.44
654.81	1962.34
655.257	1839.14
655.704	1507.84
656.151	1354.64
656.598	1243.44
657.044	1215.54
657.491	1193.24
657.938	1185.44
658.385	1143.94
658.831	1150.34
659.278	1165.44
659.724	1161.24
660.171	1154.74
660.618	1120.24
661.064	1122.54
661.511	1115.94
661.957	1106.64
662.404	1116.54
662.85	1087.84
663.296	1132.94
663.743	1108.54
664.189	1131.74
664.635	1134.94
665.082	1132.04
665.528	1101.64
665.974	1073.24
666.42	1107.14
666.867	1074.64
667.313	1040.64
667.759	1015.84
668.205	1048.04
668.651	1048.14
669.097	1049.14
669.543	1032.14
669.989	1038.84
670.435	1089.14
670.881	1178.84
671.327	1298.84
671.773	1385.64
672.219	1439.74
672.665	1428.34
673.11	1420.34
673.556	1405.84
674.002	1521.24
674.448	1400.24
674.893	1195.44
675.339	1066.24
675.785	1013.84
676.23	979.14
676.676	944.24
677.122	924.74
677.567	893.84
678.013	873.14
678.458	872.34
678.904	872.04
679.349	891.84
679.794	882.84
680.24	859.44
680.685	857.54
681.131	877.14
681.576	886.94
682.021	896.04
682.466	922.94
682.912	995.84
683.357	1091.34
683.802	1191.14
684.247	1223.54
684.692	1231.14
685.137	1214.24
685.583	1244.44
686.028	1279.54
686.473	1145.14
686.918	1016.84
687.363	956.54
687.807	918.94
688.252	876.94
688.697	865.04
689.142	861.24
689.587	901.94
690.032	946.04
690.477	979.54
690.921	985.34
691.366	1055.34
691.811	1213.84
692.255	1780.24
692.7	2912.34
693.145	3728.84
693.589	3635.64
694.034	3224.04
694.478	2588.74
694.923	3356.34
695.367	4481.04
695.812	1905.64
696.256	1042.14
696.701	872.64
697.145	839.04
697.59	799.14
698.034	800.34
698.478	814.54
698.922	858.84
699.367	941.44
699.811	1044.34
700.255	1105.64
700.699	1141.34
701.143	1166.34
701.588	1216.64
702.032	1372.94
702.476	1689.54
702.92	2621.34
703.364	3450.54
703.808	3477.04
704.252	3096.44
704.696	2523.34
705.14	3354.54
705.584	3886.44
706.027	1789.14
706.471	1097.34
706.915	899.94
707.359	828.44
707.803	784.74
708.246	771.44
708.69	758.04
709.134	758.14
709.577	777.04
710.021	774.74
710.465	776.04
710.908	854.04
711.352	930.84
711.795	950.34
712.239	923.14
712.682	849.34
713.126	913.44
713.569	966.64
714.012	762.34
714.456	690.64
714.899	660.74
715.342	637.34
715.786	623.34
716.229	612.54
716.672	615.74
717.115	647.64
717.558	666.44
718.002	690.24
718.445	713.14
718.888	703.64
719.331	696.64
719.774	695.24
720.217	675.24
720.66	646.04
721.103	619.74
721.546	566.34
721.989	570.74
722.432	597.14
722.874	604.44
723.317	720.74
723.76	982.04
724.203	1181.14
724.645	1195.34
725.088	1022.94
725.531	1032.14
725.974	1283.04
726.416	940.24
726.859	654.14
727.301	579.44
727.744	589.74
728.187	605.84
728.629	637.14
729.071	656.84
729.514	661.04
729.956	673.34
730.399	668.84
730.841	690.54
731.283	678.64
731.726	696.44
732.168	754.54
732.61	815.44
733.053	852.54
733.495	994.74
733.937	1264.64
734.379	1888.04
734.821	3397.34
735.263	5096.04
735.705	5376.54
736.148	4198.34
736.59	3953.44
737.032	5484.44
737.474	3377.44
737.916	1449.64
738.357	899.34
738.799	767.94
739.241	737.24
739.683	748.54
