Data from 20170906_ORNL-Torch-Sil_Subt14_14-33-16-145.txt Node
Date: Wed Sep 06 14:33:16 EDT 2017
User: Ender
Spectrometer: HR+D1039
Trigger mode: 0
Integration Time (sec): 1.676000E-2
Scans to average: 10
Electric dark correction enabled: true
Nonlinearity correction enabled: false
Boxcar width: 0
XAxis mode: Wavelengths
Number of Pixels in Spectrum: 2048
>>>>>Begin Spectral Data<<<<<
187.836	33.61
188.309	33.61
188.782	33.61
189.255	34.71
189.728	38.81
190.201	-19.79
190.674	1.61
191.147	9.41
191.619	6.91
192.092	7.61
192.565	-27.99
193.038	0.51
193.511	-3.59
193.984	-1.39
194.456	-4.99
194.929	-30.19
195.402	-26.19
195.874	-19.09
196.347	3.21
196.82	0.51
197.292	-20.49
197.765	-8.49
198.237	-29.99
198.71	-2.89
199.182	5.01
199.655	8.91
200.127	-14.79
200.6	2.71
201.072	7.51
201.544	-45.79
202.017	-1.69
202.489	0.11
202.961	-1.69
203.433	4.71
203.906	-5.19
204.378	-5.19
204.85	-1.39
205.322	-4.69
205.794	1.41
206.266	-42.59
206.739	-5.09
207.211	-23.19
207.683	0.91
208.155	-11.19
208.627	3.91
209.099	-19.49
209.57	-10.69
210.042	-3.99
210.514	-7.09
210.986	-4.59
211.458	-13.79
211.93	-18.79
212.402	-1.79
212.873	-3.59
213.345	-12.59
213.817	-3.09
214.288	-10.89
214.76	-11.59
215.232	7.01
215.703	-14.79
216.175	0.21
216.646	-1.09
217.118	-50.19
217.589	-13.09
218.061	1.51
218.532	-5.49
219.004	6.71
219.475	7.11
219.946	-11.09
220.418	-0.79
220.889	-6.29
221.36	-8.89
221.832	3.51
222.303	3.01
222.774	-5.79
223.245	-12.29
223.717	-18.49
224.188	-14.59
224.659	-14.99
225.13	-5.59
225.601	-12.79
226.072	-15.99
226.543	-0.29
227.014	-1.29
227.485	-13.39
227.956	-24.99
228.427	5.11
228.898	3.01
229.369	-7.19
229.839	-11.79
230.31	5.01
230.781	-2.49
231.252	9.71
231.722	-7.59
232.193	0.21
232.664	-5.69
233.135	-7.79
233.605	-16.19
234.076	-28.69
234.546	5.61
235.017	3.41
235.487	0.71
235.958	3.71
236.428	7.31
236.899	-1.89
237.369	-0.49
237.84	-30.29
238.31	-7.69
238.78	-8.39
239.251	4.71
239.721	2.11
240.191	-4.89
240.662	-7.19
241.132	10.01
241.602	-4.79
242.072	0.41
242.542	3.31
243.013	12.91
243.483	5.71
243.953	-32.69
244.423	-2.09
244.893	12.21
245.363	-40.59
245.833	-68.39
246.303	-9.99
246.773	-12.99
247.243	6.11
247.712	-0.79
248.182	10.01
248.652	8.41
249.122	1.61
249.592	0.31
250.061	1.61
250.531	12.41
251.001	18.71
251.471	-6.49
251.94	-12.29
252.41	9.21
252.879	-6.49
253.349	11.01
253.818	-12.19
254.288	6.51
254.757	0.21
255.227	3.01
255.696	1.21
256.166	-27.29
256.635	-1.29
257.105	-15.29
257.574	-5.49
258.043	-5.79
258.513	3.21
258.982	4.91
259.451	2.51
259.92	-0.59
260.389	-9.09
260.859	14.41
261.328	-1.59
261.797	10.31
262.266	10.71
262.735	0.61
263.204	-33.19
263.673	5.31
264.142	6.21
264.611	-16.79
265.08	8.91
265.549	3.41
266.018	0.81
266.487	-12.59
266.955	4.31
267.424	17.31
267.893	-6.69
268.362	-7.69
268.83	-5.09
269.299	1.61
269.768	-3.39
270.236	11.11
270.705	-17.79
271.174	-0.89
271.642	0.51
272.111	-6.79
272.579	12.11
273.048	2.41
273.516	12.01
273.985	2.91
274.453	-23.49
274.922	-21.69
275.39	-12.19
275.858	5.41
276.327	1.31
276.795	-1.19
277.263	3.71
277.731	10.11
278.2	1.11
278.668	-10.29
279.136	-4.19
279.604	2.71
280.072	8.61
280.54	11.71
281.008	5.71
281.477	7.61
281.945	14.71
282.413	-16.39
282.881	1.71
283.348	-18.19
283.816	6.61
284.284	-11.09
284.752	6.61
285.22	2.91
285.688	6.91
286.156	1.11
286.623	-7.19
287.091	5.41
287.559	0.21
288.026	-8.99
288.494	-4.79
288.962	-11.99
289.429	8.51
289.897	8.11
290.364	9.51
290.832	12.21
291.3	5.21
291.767	2.31
292.234	3.21
292.702	-14.39
293.169	6.31
293.637	-11.19
294.104	-4.79
294.571	5.51
295.039	2.21
295.506	-5.09
295.973	-0.29
296.44	0.31
296.908	0.81
297.375	14.51
297.842	8.81
298.309	12.31
298.776	-7.69
299.243	9.31
299.71	15.21
300.177	1.71
300.644	-1.99
301.111	-15.39
301.578	-8.49
302.045	-41.89
302.512	11.61
302.979	-18.19
303.446	1.01
303.913	0.61
304.379	-0.89
304.846	-9.49
305.313	-13.59
305.78	11.11
306.246	3.31
306.713	6.31
307.18	-6.69
307.646	6.51
308.113	8.71
308.579	-6.39
309.046	0.91
309.512	-6.09
309.979	-10.09
310.445	4.41
310.912	-1.49
311.378	8.51
311.845	-4.69
312.311	12.51
312.777	1.71
313.244	6.21
313.71	14.21
314.176	12.31
314.642	2.91
315.109	-3.99
315.575	9.01
316.041	-2.89
316.507	-19.39
316.973	5.81
317.439	-4.79
317.905	4.81
318.371	-12.09
318.837	7.01
319.303	6.01
319.769	-2.59
320.235	1.31
320.701	-11.39
321.167	-14.89
321.633	8.51
322.099	10.31
322.564	12.41
323.03	-30.19
323.496	-7.29
323.962	-0.49
324.427	11.11
324.893	-17.19
325.359	7.51
325.824	11.01
326.29	10.11
326.755	3.71
327.221	2.71
327.686	7.21
328.152	1.11
328.617	6.71
329.083	4.21
329.548	17.31
330.014	3.01
330.479	7.01
330.944	9.31
331.41	-0.69
331.875	-9.59
332.34	-2.69
332.805	-3.39
333.271	5.41
333.736	0.41
334.201	-1.89
334.666	10.01
335.131	18.61
335.596	1.01
336.061	14.01
336.526	-3.79
336.991	-2.59
337.456	2.21
337.921	3.11
338.386	5.01
338.851	4.71
339.316	14.61
339.781	-5.39
340.246	7.21
340.711	2.51
341.175	10.91
341.64	-7.29
342.105	6.31
342.569	1.11
343.034	11.01
343.499	4.61
343.963	-30.49
344.428	3.41
344.893	9.11
345.357	5.71
345.822	16.41
346.286	10.21
346.751	-4.39
347.215	7.91
347.679	11.71
348.144	1.71
348.608	-4.79
349.073	11.81
349.537	-0.39
350.001	9.41
350.465	-2.09
350.93	9.11
351.394	16.21
351.858	6.81
352.322	12.61
352.786	-13.99
353.25	-31.19
353.715	-3.09
354.179	-5.79
354.643	-6.29
355.107	17.01
355.571	-4.39
356.035	7.01
356.498	12.71
356.962	14.51
357.426	-12.59
357.89	4.01
358.354	9.31
358.818	2.51
359.281	12.31
359.745	12.61
360.209	1.21
360.673	-20.39
361.136	10.01
361.6	-12.89
362.064	0.41
362.527	9.11
362.991	-8.19
363.454	1.01
363.918	3.51
364.381	4.51
364.845	-1.09
365.308	10.71
365.772	6.01
366.235	16.91
366.698	6.91
367.162	3.61
367.625	6.21
368.088	13.41
368.552	1.21
369.015	-12.79
369.478	2.01
369.941	-1.49
370.404	4.11
370.867	10.61
371.331	10.41
371.794	-10.99
372.257	3.11
372.72	19.41
373.183	19.61
373.646	-3.09
374.109	-2.89
374.572	0.11
375.035	-6.79
375.497	-63.29
375.96	3.41
376.423	6.71
376.886	0.51
377.349	-11.69
377.811	10.61
378.274	6.01
378.737	-5.09
379.199	-5.29
379.662	6.71
380.125	-13.69
380.587	6.91
381.05	6.21
381.512	14.21
381.975	9.01
382.437	4.71
382.9	11.31
383.362	1.91
383.825	-1.29
384.287	0.11
384.75	8.21
385.212	3.31
385.674	-0.59
386.136	17.91
386.599	13.41
387.061	0.31
387.523	-1.09
387.985	-3.09
388.447	-0.19
388.91	2.71
389.372	9.71
389.834	10.01
390.296	-7.19
390.758	2.11
391.22	4.81
391.682	2.61
392.144	17.71
392.606	0.81
393.068	-0.89
393.529	0.31
393.991	7.01
394.453	13.51
394.915	8.61
395.377	-11.09
395.838	6.51
396.3	-14.39
396.762	4.71
397.224	-5.39
397.685	12.11
398.147	11.61
398.608	4.51
399.07	3.71
399.531	8.81
399.993	1.01
400.454	-2.69
400.916	16.21
401.377	9.81
401.839	7.91
402.3	-10.69
402.762	4.61
403.223	-11.29
403.684	-40.39
404.145	-5.69
404.607	5.71
405.068	12.01
405.529	-11.69
405.99	6.11
406.451	16.31
406.913	15.71
407.374	11.51
407.835	5.81
408.296	11.21
408.757	-0.99
409.218	-24.19
409.679	8.31
410.14	-6.69
410.601	7.61
411.062	5.51
411.522	-1.99
411.983	-0.79
412.444	-3.09
412.905	6.41
413.366	-0.19
413.826	8.71
414.287	9.51
414.748	15.01
415.208	11.51
415.669	15.71
416.13	13.41
416.59	8.61
417.051	-20.39
417.511	-20.09
417.972	6.51
418.432	13.41
418.893	-0.79
419.353	13.31
419.814	9.91
420.274	17.61
420.734	9.01
421.195	9.01
421.655	9.61
422.115	4.31
422.576	-11.29
423.036	-0.09
423.496	22.81
423.956	17.21
424.416	1.01
424.876	6.71
425.336	-3.89
425.797	2.61
426.257	11.21
426.717	-12.19
427.177	-23.39
427.637	0.21
428.097	3.11
428.556	-39.39
429.016	-5.99
429.476	-19.39
429.936	-0.09
430.396	-15.29
430.856	-6.39
431.315	-30.59
431.775	9.41
432.235	-0.49
432.694	-3.99
433.154	8.41
433.614	9.01
434.073	-6.99
434.533	6.11
434.993	9.71
435.452	5.51
435.912	10.01
436.371	9.01
436.83	5.31
437.29	0.11
437.749	14.81
438.209	0.21
438.668	2.01
439.127	3.91
439.587	18.21
440.046	12.01
440.505	7.41
440.964	1.51
441.424	4.01
441.883	6.21
442.342	-1.59
442.801	-4.29
443.26	4.01
443.719	4.01
444.178	5.81
444.637	5.41
445.096	19.91
445.555	-5.09
446.014	-21.89
446.473	6.81
446.932	7.31
447.391	12.61
447.849	-3.49
448.308	12.11
448.767	-16.49
449.226	17.01
449.685	7.91
450.143	18.91
450.602	8.21
451.061	5.91
451.519	-9.89
451.978	5.61
452.436	-3.29
452.895	15.21
453.353	17.61
453.812	10.21
454.27	13.01
454.729	6.21
455.187	4.51
455.646	0.51
456.104	15.01
456.562	11.71
457.021	-4.09
457.479	11.01
457.937	18.41
458.395	-9.89
458.854	5.31
459.312	-2.59
459.77	7.01
460.228	14.81
460.686	9.61
461.144	7.51
461.602	3.71
462.06	-7.99
462.518	-17.69
462.976	-6.89
463.434	11.31
463.892	18.21
464.35	7.31
464.808	8.11
465.266	4.91
465.724	14.41
466.181	2.91
466.639	-7.49
467.097	2.91
467.555	14.81
468.012	0.71
468.47	17.31
468.928	12.01
469.385	11.41
469.843	20.31
470.3	7.31
470.758	3.01
471.215	5.01
471.673	2.91
472.13	6.91
472.588	14.01
473.045	7.61
473.503	14.21
473.96	6.81
474.417	-4.49
474.875	-1.19
475.332	9.51
475.789	1.81
476.246	16.71
476.704	17.21
477.161	5.81
477.618	16.51
478.075	-4.19
478.532	13.81
478.989	5.51
479.446	18.41
479.903	2.01
480.36	3.21
480.817	3.81
481.274	3.31
481.731	4.81
482.188	-13.19
482.645	-16.49
483.102	7.61
483.558	3.51
484.015	10.51
484.472	10.41
484.929	9.71
485.385	9.61
485.842	13.01
486.299	15.81
486.755	2.11
487.212	7.21
487.668	6.51
488.125	-1.69
488.582	9.91
489.038	2.51
489.494	12.01
489.951	10.21
490.407	12.11
490.864	3.21
491.32	-2.79
491.776	15.81
492.233	7.01
492.689	8.11
493.145	15.41
493.602	10.81
494.058	4.91
494.514	4.91
494.97	4.71
495.426	11.41
495.882	9.91
496.338	4.01
496.794	-9.89
497.251	-15.29
497.707	5.71
498.163	-5.89
498.618	7.81
499.074	9.81
499.53	14.61
499.986	9.01
500.442	0.51
500.898	-9.59
501.354	5.91
501.809	11.41
502.265	-4.59
502.721	5.01
503.177	11.91
503.632	-9.69
504.088	6.71
504.543	10.01
504.999	-8.29
505.455	6.11
505.91	3.91
506.366	12.91
506.821	8.71
507.277	-7.79
507.732	9.01
508.187	8.21
508.643	6.91
509.098	5.81
509.553	-3.89
510.009	-3.49
510.464	5.31
510.919	-25.39
511.375	-12.09
511.83	5.91
512.285	-6.19
512.74	-10.09
513.195	-8.09
513.65	4.51
514.105	3.61
514.56	15.21
515.015	12.51
515.47	10.31
515.925	-7.79
516.38	6.01
516.835	-2.79
517.29	-19.49
517.745	-3.69
518.2	0.61
518.655	8.51
519.109	10.11
519.564	3.31
520.019	-2.29
520.474	7.21
520.928	-19.79
521.383	4.21
521.838	-3.89
522.292	2.91
522.747	4.31
523.201	6.61
523.656	7.81
524.11	-7.39
524.565	2.01
525.019	8.11
525.474	10.31
525.928	-3.69
526.382	-3.39
526.837	3.21
527.291	-11.09
527.745	13.61
528.2	6.51
528.654	-7.99
529.108	-10.19
529.562	-3.89
530.016	-6.79
530.47	8.21
530.925	12.81
531.379	0.11
531.833	19.31
532.287	10.41
532.741	13.61
533.195	10.51
533.649	6.81
534.103	13.31
534.556	5.51
535.01	5.31
535.464	4.11
535.918	3.51
536.372	4.11
536.826	10.71
537.279	11.21
537.733	9.21
538.187	3.41
538.64	4.91
539.094	-24.49
539.548	-7.29
540.001	1.81
540.455	8.91
540.908	4.91
541.362	13.31
541.815	2.31
542.269	10.81
542.722	-0.39
543.175	-27.29
543.629	9.01
544.082	1.31
544.536	-3.09
544.989	0.81
545.442	6.61
545.895	5.31
546.349	0.21
546.802	-1.59
547.255	-4.79
547.708	12.71
548.161	15.21
548.614	3.11
549.067	13.61
549.52	15.41
549.973	10.31
550.426	12.11
550.879	7.31
551.332	0.41
551.785	6.31
552.238	7.11
552.691	9.41
553.144	17.51
553.596	17.41
554.049	8.01
554.502	-9.39
554.955	-12.29
555.407	0.61
555.86	7.11
556.313	8.51
556.765	5.21
557.218	7.01
557.67	11.21
558.123	20.41
558.576	17.51
559.028	12.91
559.48	6.51
559.933	-0.19
560.385	-12.39
560.838	-8.09
561.29	-0.89
561.742	7.11
562.195	10.91
562.647	11.61
563.099	-8.39
563.551	1.81
564.004	12.91
564.456	-13.99
564.908	-2.59
565.36	12.71
565.812	-4.19
566.264	4.61
566.716	5.41
567.168	19.81
567.62	10.71
568.072	15.61
568.524	12.21
568.976	3.51
569.428	12.51
569.88	-0.29
570.332	14.91
570.784	11.91
571.235	-6.19
571.687	8.21
572.139	-10.29
572.59	6.61
573.042	11.41
573.494	12.91
573.945	-11.79
574.397	9.31
574.849	-15.89
575.3	-4.79
575.752	-5.69
576.203	12.51
576.655	13.71
577.106	-10.19
577.557	3.21
578.009	-13.79
578.46	0.41
578.912	6.81
579.363	8.61
579.814	9.61
580.265	15.91
580.717	17.71
581.168	3.61
581.619	9.91
582.07	-1.29
582.521	-5.39
582.972	3.11
583.423	0.11
583.875	0.31
584.326	-0.89
584.777	26.21
585.227	9.61
585.678	-29.19
586.129	-13.49
586.58	4.61
587.031	11.81
587.482	-12.49
587.933	12.41
588.384	-5.19
588.834	8.51
589.285	-7.19
589.736	10.41
590.186	11.71
590.637	-6.09
591.088	11.31
591.538	-13.19
591.989	10.41
592.439	-0.79
592.89	-16.29
593.34	7.41
593.791	16.31
594.241	13.81
594.692	11.81
595.142	4.51
595.593	6.31
596.043	4.51
596.493	-12.59
596.943	9.71
597.394	-10.29
597.844	13.51
598.294	3.11
598.744	1.81
599.195	-7.79
599.645	4.41
600.095	0.11
600.545	3.41
600.995	20.41
601.445	13.31
601.895	18.31
602.345	7.11
602.795	8.81
603.245	-9.69
603.695	-18.69
604.145	-7.49
604.594	-2.59
605.044	-1.49
605.494	10.21
605.944	15.01
606.393	0.11
606.843	8.61
607.293	19.41
607.743	3.71
608.192	1.11
608.642	1.91
609.091	-3.99
609.541	2.31
609.99	11.51
610.44	14.61
610.889	5.51
611.339	0.21
611.788	11.41
612.238	0.21
612.687	10.11
613.136	10.81
613.586	9.21
614.035	-1.59
614.484	7.31
614.933	12.01
615.383	1.11
615.832	9.21
616.281	9.71
616.73	-3.89
617.179	14.91
617.628	6.51
618.077	13.31
618.526	17.41
618.975	8.31
619.424	10.21
619.873	14.01
620.322	11.01
620.771	6.01
621.22	-3.49
621.669	16.41
622.118	10.21
622.567	1.61
623.015	11.01
623.464	11.71
623.913	-3.29
624.361	11.91
624.81	15.51
625.259	7.21
625.707	19.11
626.156	9.01
626.604	14.61
627.053	13.61
627.501	8.31
627.95	9.11
628.398	1.51
628.847	16.11
629.295	15.01
629.744	15.91
630.192	5.11
630.64	-14.79
631.089	12.21
631.537	-124.29
631.985	2.01
632.433	14.01
632.881	19.21
633.33	11.81
633.778	12.21
634.226	4.51
634.674	4.91
635.122	-1.59
635.57	6.91
636.018	15.71
636.466	13.11
636.914	16.11
637.362	13.61
637.81	19.91
638.258	-8.99
638.705	9.01
639.153	20.61
639.601	4.81
640.049	16.21
640.497	19.31
640.944	11.51
641.392	11.51
641.84	9.61
642.287	11.91
642.735	6.11
643.182	12.31
643.63	-6.19
644.078	22.31
644.525	-8.19
644.973	9.31
645.42	7.21
645.867	4.71
646.315	15.61
646.762	18.01
647.21	16.81
647.657	1.81
648.104	4.71
648.551	0.51
648.999	6.91
649.446	18.11
649.893	12.11
650.34	25.71
650.787	9.31
651.234	9.41
651.682	13.71
652.129	6.01
652.576	-19.39
653.023	-3.09
653.47	-7.09
653.917	10.71
654.363	10.01
654.81	9.11
655.257	14.51
655.704	-1.39
656.151	18.11
656.598	-7.39
657.044	10.41
657.491	-0.99
657.938	13.51
658.385	4.71
658.831	3.01
659.278	4.91
659.724	10.71
660.171	15.11
660.618	7.01
661.064	20.61
661.511	17.51
661.957	4.31
662.404	9.41
662.85	-38.89
663.296	-7.39
663.743	-9.99
664.189	9.71
664.635	21.31
665.082	6.91
665.528	13.71
665.974	5.81
666.42	6.71
666.867	1.41
667.313	5.21
667.759	-10.09
668.205	16.51
668.651	17.41
669.097	10.41
669.543	-13.09
669.989	-12.29
670.435	-3.49
670.881	0.21
671.327	12.91
671.773	-19.59
672.219	4.11
672.665	-0.19
673.11	12.71
673.556	7.01
674.002	6.11
674.448	0.61
674.893	14.71
675.339	-0.29
675.785	15.01
676.23	15.01
676.676	13.61
677.122	13.81
677.567	8.31
678.013	-0.19
678.458	6.01
678.904	5.01
679.349	19.71
679.794	15.21
680.24	5.81
680.685	2.91
681.131	14.11
681.576	16.31
682.021	13.61
682.466	9.31
682.912	17.11
683.357	1.61
683.802	9.51
684.247	14.01
684.692	15.31
685.137	14.01
685.583	4.91
686.028	12.11
686.473	5.11
686.918	12.01
687.363	10.11
687.807	10.91
688.252	16.11
688.697	10.41
689.142	5.61
689.587	6.51
690.032	21.81
690.477	6.21
690.921	-8.19
691.366	9.51
691.811	-3.79
692.255	13.51
692.7	-0.89
693.145	18.21
693.589	12.81
694.034	18.41
694.478	3.21
694.923	17.91
695.367	2.71
695.812	19.41
696.256	1.31
696.701	5.51
697.145	12.21
697.59	-10.19
698.034	1.81
698.478	8.91
698.922	3.81
699.367	10.91
699.811	11.91
700.255	-5.99
700.699	-1.09
701.143	14.21
701.588	6.71
702.032	13.41
702.476	-19.19
702.92	-24.69
703.364	-4.79
703.808	8.31
704.252	8.01
704.696	-3.69
705.14	19.11
705.584	14.11
706.027	10.31
706.471	12.51
706.915	21.01
707.359	10.81
707.803	7.31
708.246	7.01
708.69	9.01
709.134	16.31
709.577	15.81
710.021	15.41
710.465	12.61
710.908	15.11
711.352	11.91
711.795	-1.99
712.239	13.71
712.682	0.31
713.126	-14.59
713.569	9.01
714.012	9.61
714.456	-6.49
714.899	5.51
715.342	-4.89
715.786	5.41
716.229	13.11
716.672	9.01
717.115	15.21
717.558	9.91
718.002	6.61
718.445	14.81
718.888	7.31
719.331	8.81
719.774	2.91
720.217	-6.29
720.66	17.51
721.103	21.01
721.546	-5.99
721.989	-0.79
722.432	11.31
722.874	-5.09
723.317	9.41
723.76	-5.09
724.203	5.31
724.645	12.21
725.088	11.31
725.531	7.61
725.974	10.71
726.416	0.71
726.859	14.41
727.301	-1.49
727.744	5.61
728.187	0.81
728.629	14.81
729.071	-3.39
729.514	8.51
729.956	4.81
730.399	7.51
730.841	14.91
731.283	10.91
731.726	9.71
732.168	15.01
732.61	9.51
733.053	2.91
733.495	19.81
733.937	7.21
734.379	14.41
734.821	6.21
735.263	12.41
735.705	19.51
736.148	14.41
736.59	1.31
737.032	2.81
737.474	6.11
737.916	15.11
738.357	15.11
738.799	4.21
739.241	6.21
739.683	17.41
740.125	5.71
740.567	7.21
741.008	17.61
741.45	-6.19
741.892	-3.49
742.334	18.21
742.775	4.41
743.217	12.31
743.658	3.61
744.1	6.71
744.542	2.01
744.983	4.41
745.425	5.41
745.866	-13.79
746.307	-2.99
746.749	4.81
747.19	12.01
747.632	13.91
748.073	8.01
748.514	-13.49
748.956	9.91
749.397	13.01
749.838	6.91
750.279	10.81
750.72	6.21
751.162	-0.89
751.603	-0.69
752.044	12.21
752.485	10.51
752.926	8.21
753.367	9.31
753.808	-13.29
754.249	6.41
754.69	15.61
755.131	6.91
755.572	18.21
756.013	15.41
756.453	-5.29
756.894	5.91
757.335	-5.79
757.776	-10.99
758.216	16.81
758.657	6.71
759.098	3.21
759.538	19.11
759.979	11.91
760.42	9.31
760.86	-14.09
761.301	-3.29
761.741	20.71
