Data from MSPlasma+Separation6_Subt14_10-15-42-284.txt Node
Date: Fri Jul 21 10:15:42 EDT 2017
User: Ender
Spectrometer: HR+D1039
Trigger mode: 0
Integration Time (sec): 2.510000E-3
Scans to average: 20
Electric dark correction enabled: true
Nonlinearity correction enabled: false
Boxcar width: 0
XAxis mode: Wavelengths
Number of Pixels in Spectrum: 2048
>>>>>Begin Spectral Data<<<<<
187.836	1.44
188.309	1.44
188.782	1.44
189.255	0.89
189.728	0.79
190.201	1.89
190.674	2.59
191.147	-3.51
191.619	-0.86
192.092	-0.46
192.565	-1.66
193.038	1.59
193.511	2.79
193.984	-0.66
194.456	1.69
194.929	-1.51
195.402	-3.56
195.874	-1.41
196.347	0.79
196.82	4.14
197.292	-0.91
197.765	-2.91
198.237	-0.51
198.71	-4.61
199.182	-0.46
199.655	0.74
200.127	-1.06
200.6	-0.16
201.072	0.89
201.544	2.74
202.017	-2.46
202.489	0.84
202.961	-4.26
203.433	-4.11
203.906	0.24
204.378	0.14
204.85	1.24
205.322	-2.31
205.794	3.64
206.266	1.74
206.739	3.39
207.211	-1.76
207.683	1.09
208.155	-0.31
208.627	-2.51
209.099	0.84
209.57	0.39
210.042	1.79
210.514	-0.81
210.986	4.14
211.458	6.99
211.93	4.99
212.402	-1.86
212.873	-2.21
213.345	-5.91
213.817	1.24
214.288	-2.11
214.76	-0.31
215.232	0.59
215.703	-1.81
216.175	1.49
216.646	-3.91
217.118	0.34
217.589	-1.36
218.061	0.14
218.532	-4.11
219.004	0.14
219.475	5.69
219.946	7.44
220.418	16.64
220.889	8.79
221.36	6.14
221.832	1.69
222.303	3.29
222.774	-4.36
223.245	0.04
223.717	3.14
224.188	3.14
224.659	2.44
225.13	-0.61
225.601	0.79
226.072	2.94
226.543	4.59
227.014	-1.01
227.485	5.84
227.956	2.84
228.427	8.14
228.898	3.09
229.369	4.69
229.839	0.04
230.31	7.84
230.781	3.49
231.252	4.99
231.722	7.79
232.193	13.09
232.664	13.89
233.135	17.09
233.605	22.29
234.076	17.19
234.546	14.54
235.017	17.24
235.487	14.14
235.958	16.79
236.428	28.09
236.899	40.19
237.369	46.54
237.84	31.14
238.31	40.14
238.78	40.74
239.251	39.29
239.721	38.14
240.191	29.29
240.662	19.59
241.132	12.59
241.602	19.69
242.072	23.49
242.542	30.09
243.013	22.34
243.483	20.24
243.953	9.69
244.423	14.44
244.893	16.04
245.363	22.99
245.833	19.74
246.303	23.99
246.773	26.69
247.243	28.64
247.712	34.64
248.182	41.39
248.652	44.09
249.122	66.09
249.592	123.34
250.061	185.89
250.531	300.44
251.001	226.79
251.471	192.54
251.94	144.74
252.41	77.09
252.879	53.54
253.349	43.54
253.818	33.79
254.288	33.79
254.757	30.49
255.227	39.54
255.696	32.79
256.166	28.84
256.635	29.44
257.105	38.79
257.574	50.89
258.043	53.74
258.513	93.39
258.982	118.14
259.451	83.54
259.92	84.24
260.389	80.44
260.859	52.69
261.328	65.79
261.797	99.34
262.266	84.59
262.735	36.99
263.204	25.64
263.673	26.44
264.142	15.39
264.611	20.64
265.08	27.04
265.549	20.64
266.018	16.54
266.487	20.54
266.955	17.79
267.424	29.64
267.893	27.19
268.362	24.74
268.83	20.84
269.299	23.29
269.768	30.39
270.236	29.89
270.705	40.14
271.174	37.84
271.642	39.14
272.111	48.94
272.579	78.79
273.048	122.69
273.516	156.74
273.985	157.54
274.453	119.79
274.922	70.39
275.39	44.89
275.858	41.04
276.327	33.49
276.795	34.34
277.263	35.34
277.731	49.74
278.2	107.44
278.668	137.49
279.136	108.59
279.604	63.29
280.072	36.34
280.54	31.59
281.008	37.44
281.477	35.09
281.945	36.29
282.413	39.44
282.881	39.29
283.348	42.84
283.816	40.34
284.284	43.09
284.752	39.79
285.22	43.64
285.688	44.24
286.156	81.39
286.623	226.54
287.091	437.44
287.559	232.64
288.026	86.79
288.494	54.14
288.962	41.04
289.429	39.59
289.897	37.44
290.364	36.59
290.832	39.19
291.3	40.44
291.767	39.39
292.234	46.79
292.702	41.49
293.169	46.84
293.637	51.54
294.104	54.64
294.571	47.34
295.039	45.09
295.506	40.39
295.973	44.99
296.44	43.84
296.908	51.39
297.375	57.84
297.842	57.34
298.309	49.64
298.776	44.79
299.243	51.89
299.71	47.94
300.177	47.04
300.644	46.79
301.111	61.59
301.578	54.54
302.045	47.24
302.512	46.09
302.979	53.69
303.446	57.99
303.913	56.74
304.379	54.49
304.846	71.24
305.313	78.94
305.78	91.54
306.246	109.99
306.713	117.79
307.18	99.84
307.646	113.04
308.113	97.24
308.579	77.29
309.046	76.74
309.512	80.89
309.979	70.19
310.445	59.84
310.912	64.59
311.378	67.24
311.845	66.39
312.311	57.34
312.777	58.54
313.244	65.44
313.71	71.14
314.176	77.69
314.642	92.19
315.109	102.99
315.575	93.49
316.041	87.34
316.507	79.34
316.973	100.59
317.439	91.29
317.905	107.04
318.371	97.94
318.837	95.94
319.303	100.19
319.769	90.69
320.235	103.04
320.701	117.59
321.167	126.99
321.633	156.94
322.099	212.19
322.564	293.64
323.03	225.54
323.496	157.39
323.962	150.09
324.427	136.34
324.893	118.04
325.359	117.94
325.824	96.39
326.29	107.69
326.755	106.54
327.221	104.84
327.686	110.29
328.152	101.89
328.617	94.59
329.083	92.89
329.548	103.19
330.014	104.39
330.479	118.09
330.944	133.74
331.41	160.69
331.875	146.69
332.34	152.14
332.805	182.99
333.271	235.74
333.736	306.09
334.201	274.19
334.666	208.84
335.131	233.34
335.596	184.94
336.061	193.09
336.526	198.54
336.991	170.39
337.456	186.54
337.921	145.59
338.386	118.04
338.851	105.64
339.316	100.84
339.781	93.44
340.246	99.09
340.711	100.69
341.175	101.19
341.64	98.89
342.105	100.49
342.569	115.49
343.034	110.59
343.499	122.94
343.963	120.04
344.428	116.64
344.893	121.09
345.357	128.39
345.822	122.04
346.286	122.69
346.751	125.84
347.215	123.89
347.679	131.34
348.144	143.14
348.608	140.34
349.073	143.94
349.537	161.64
350.001	155.24
350.465	144.69
350.93	139.34
351.394	142.49
351.858	140.89
352.322	144.29
352.786	148.64
353.25	140.39
353.715	139.59
354.179	152.34
354.643	155.14
355.107	159.24
355.571	169.94
356.035	175.64
356.498	170.74
356.962	178.79
357.426	177.99
357.89	162.84
358.354	147.94
358.818	155.59
359.281	156.69
359.745	163.74
360.209	160.04
360.673	157.94
361.136	167.64
361.6	162.39
362.064	170.84
362.527	181.89
362.991	178.49
363.454	179.89
363.918	185.04
364.381	179.14
364.845	175.49
365.308	164.79
365.772	168.89
366.235	174.34
366.698	177.54
367.162	222.09
367.625	248.99
368.088	200.99
368.552	176.19
369.015	183.84
369.478	195.94
369.941	197.54
370.404	200.54
370.867	213.64
371.331	217.44
371.794	224.44
372.257	249.79
372.72	267.94
373.183	251.69
373.646	254.49
374.109	254.44
374.572	297.64
375.035	346.14
375.497	259.74
375.96	209.79
376.423	198.44
376.886	194.14
377.349	205.59
377.811	206.04
378.274	209.34
378.737	208.39
379.199	217.64
379.662	221.44
380.125	243.94
380.587	264.34
381.05	281.09
381.512	275.49
381.975	273.09
382.437	268.44
382.9	267.14
383.362	264.04
383.825	285.99
384.287	361.99
384.75	411.29
385.212	363.59
385.674	292.14
386.136	271.99
386.599	266.29
387.061	271.49
387.523	282.69
387.985	286.49
388.447	299.49
388.91	345.79
389.372	413.09
389.834	387.49
390.296	321.74
390.758	325.94
391.22	332.79
391.682	408.74
392.144	626.79
392.606	583.49
393.068	359.39
393.529	318.24
393.991	304.24
394.453	304.04
394.915	319.04
395.377	381.64
395.838	469.34
396.3	333.09
396.762	261.94
397.224	248.24
397.685	244.79
398.147	247.14
398.608	252.29
399.07	252.64
399.531	245.89
399.993	253.99
400.454	255.34
400.916	253.79
401.377	259.84
401.839	258.79
402.3	259.49
402.762	279.79
403.223	304.39
403.684	306.89
404.145	286.34
404.607	282.44
405.068	278.19
405.529	284.04
405.99	288.59
406.451	296.44
406.913	282.89
407.374	290.84
407.835	297.34
408.296	304.94
408.757	307.39
409.218	318.44
409.679	317.24
410.14	318.74
410.601	334.59
411.062	348.34
411.522	407.29
411.983	446.29
412.444	380.54
412.905	334.54
413.366	331.14
413.826	342.19
414.287	378.94
414.748	445.69
415.208	453.74
415.669	387.24
416.13	352.39
416.59	344.69
417.051	353.24
417.511	365.79
417.972	396.34
418.432	424.99
418.893	470.29
419.353	449.64
419.814	348.54
420.274	313.04
420.734	312.44
421.195	330.24
421.655	341.64
422.115	340.04
422.576	321.04
423.036	323.89
423.496	342.34
423.956	356.39
424.416	376.64
424.876	426.19
425.336	428.14
425.797	418.39
426.257	422.04
426.717	401.59
427.177	387.94
427.637	391.79
428.097	410.99
428.556	435.99
429.016	471.94
429.476	473.59
429.936	459.09
430.396	439.19
430.856	448.74
431.315	457.99
431.775	494.04
432.235	513.49
432.694	528.14
433.154	497.54
433.614	474.69
434.073	472.89
434.533	427.79
434.993	406.29
435.452	416.69
435.912	398.39
436.371	396.54
436.83	400.24
437.29	405.49
437.749	378.74
438.209	378.39
438.668	382.84
439.127	378.94
439.587	373.79
440.046	361.34
440.505	364.24
440.964	362.59
441.424	372.29
441.883	379.64
442.342	361.99
442.801	345.99
443.26	359.64
443.719	357.94
444.178	344.94
444.637	356.64
445.096	349.54
445.555	357.44
446.014	360.89
446.473	348.54
446.932	345.04
447.391	356.54
447.849	361.14
448.308	358.49
448.767	366.69
449.226	372.94
449.685	380.34
450.143	390.79
450.602	389.39
451.061	379.94
451.519	383.64
451.978	381.39
452.436	401.89
452.895	381.99
453.353	375.34
453.812	383.59
454.27	374.69
454.729	362.49
455.187	363.79
455.646	364.99
456.104	363.49
456.562	374.54
457.021	366.54
457.479	352.69
457.937	359.89
458.395	369.14
458.854	364.29
459.312	360.39
459.77	368.19
460.228	370.64
460.686	367.49
461.144	373.74
461.602	368.99
462.06	366.59
462.518	385.59
462.976	379.74
463.434	385.14
463.892	375.29
464.35	393.69
464.808	393.04
465.266	400.44
465.724	413.79
466.181	409.49
466.639	410.89
467.097	422.04
467.555	436.39
468.012	437.04
468.47	434.29
468.928	451.74
469.385	466.14
469.843	470.39
470.3	470.19
470.758	487.14
471.215	496.84
471.673	504.84
472.13	521.09
472.588	526.44
473.045	534.79
473.503	536.84
473.96	557.09
474.417	562.94
474.875	597.64
475.332	614.89
475.789	629.39
476.246	646.89
476.704	677.74
477.161	694.69
477.618	718.69
478.075	762.69
478.532	828.39
478.989	897.49
479.446	989.64
479.903	1067.69
480.36	1169.49
480.817	1251.04
481.274	1354.39
481.731	1489.39
482.188	1602.59
482.645	1720.54
483.102	1846.34
483.558	1969.34
484.015	2054.79
484.472	2061.84
484.929	1993.09
485.385	1898.49
485.842	1838.19
486.299	1747.44
486.755	1575.69
487.212	1411.69
487.668	1261.04
488.125	1159.64
488.582	1058.49
489.038	1010.14
489.494	976.14
489.951	938.04
490.407	909.04
490.864	901.94
491.32	869.39
491.776	852.89
492.233	852.34
492.689	840.89
493.145	828.34
493.602	821.19
494.058	838.24
494.514	848.24
494.97	856.24
495.426	864.34
495.882	866.84
496.338	867.14
496.794	897.14
497.251	901.44
497.707	900.94
498.163	898.44
498.618	900.64
499.074	911.14
499.53	921.29
499.986	946.19
500.442	960.99
500.898	955.99
501.354	975.74
501.809	979.44
502.265	991.29
502.721	1044.24
503.177	1066.49
503.632	1022.49
504.088	1016.39
504.543	1123.54
504.999	1038.59
505.455	915.24
505.91	871.09
506.366	862.89
506.821	857.84
507.277	853.69
507.732	857.84
508.187	853.94
508.643	870.14
509.098	866.44
509.553	866.09
510.009	884.44
510.464	896.49
510.919	902.14
511.375	914.94
511.83	934.54
512.285	943.69
512.74	970.99
513.195	979.49
513.65	1001.99
514.105	1014.19
514.56	1013.69
515.015	1034.84
515.47	1042.54
515.925	1034.94
516.38	1027.64
516.835	1034.49
517.29	1025.14
517.745	1037.69
518.2	1016.84
518.655	992.09
519.109	975.74
519.564	963.34
520.019	955.19
520.474	952.24
520.928	938.14
521.383	945.59
521.838	942.54
522.292	925.64
522.747	919.99
523.201	914.94
523.656	903.49
524.11	906.84
524.565	899.79
525.019	906.99
525.474	907.99
525.928	909.34
526.382	897.09
526.837	882.19
527.291	888.94
527.745	885.94
528.2	885.04
528.654	870.64
529.108	877.04
529.562	877.74
530.016	882.14
530.47	882.24
530.925	884.49
531.379	880.99
531.833	892.19
532.287	883.14
532.741	882.69
533.195	880.74
533.649	879.34
534.103	880.84
534.556	874.39
535.01	883.29
535.464	879.34
535.918	878.44
536.372	887.34
536.826	885.19
537.279	875.59
537.733	875.94
538.187	878.14
538.64	877.14
539.094	885.44
539.548	904.79
540.001	896.79
540.455	906.39
540.908	909.19
541.362	920.54
541.815	926.34
542.269	948.34
542.722	939.54
543.175	946.34
543.629	955.89
544.082	960.49
544.536	972.54
544.989	975.19
545.442	983.44
545.895	982.09
546.349	986.64
546.802	979.14
547.255	977.99
547.708	984.34
548.161	995.24
548.614	991.54
549.067	995.19
549.52	984.79
549.973	976.74
550.426	977.79
550.879	972.84
551.332	963.39
551.785	976.54
552.238	990.79
552.691	979.89
553.144	1009.09
553.596	1015.34
554.049	1024.04
554.502	1034.59
554.955	1057.39
555.407	1071.04
555.86	1066.19
556.313	1048.64
556.765	1046.54
557.218	1031.04
557.67	1031.29
558.123	1016.69
558.576	1015.09
559.028	1009.04
559.48	1020.89
559.933	1016.74
560.385	988.54
560.838	962.29
561.29	921.89
561.742	921.99
562.195	917.94
562.647	903.19
563.099	898.69
563.551	902.99
564.004	908.49
564.456	902.74
564.908	881.79
565.36	858.84
565.812	844.89
566.264	838.59
566.716	829.64
567.168	821.34
567.62	823.79
568.072	801.84
568.524	806.94
568.976	803.79
569.428	796.14
569.88	790.99
570.332	794.59
570.784	792.84
571.235	786.64
571.687	792.54
572.139	791.29
572.59	799.79
573.042	806.29
573.494	803.79
573.945	786.29
574.397	775.79
574.849	774.64
575.3	782.44
575.752	770.54
576.203	763.24
576.655	763.09
577.106	749.44
577.557	755.74
578.009	754.54
578.46	755.44
578.912	740.54
579.363	747.14
579.814	743.99
580.265	747.94
580.717	746.44
581.168	741.69
581.619	755.59
582.07	751.69
582.521	755.19
582.972	753.24
583.423	764.34
583.875	782.59
584.326	817.39
584.777	887.94
585.227	972.59
585.678	1034.84
586.129	1053.34
586.58	1075.49
587.031	1084.09
587.482	1144.59
587.933	1327.69
588.384	1228.04
588.834	1020.64
589.285	868.94
589.736	850.99
590.186	853.09
590.637	844.54
591.088	824.99
591.538	823.04
591.989	816.34
592.439	810.84
592.89	793.69
593.34	798.14
593.791	805.99
594.241	808.24
594.692	825.79
595.142	818.94
595.593	798.29
596.043	804.54
596.493	815.64
596.943	837.34
597.394	827.64
597.844	810.69
598.294	821.99
598.744	842.34
599.195	883.49
599.645	935.99
600.095	983.39
600.545	1028.99
600.995	1065.99
601.445	1096.14
601.895	1150.84
602.345	1188.89
602.795	1170.34
603.245	1124.04
603.695	1062.79
604.145	992.34
604.594	946.44
605.044	906.34
605.494	857.79
605.944	807.59
606.393	793.19
606.843	787.64
607.293	785.34
607.743	780.39
608.192	788.84
608.642	793.44
609.091	790.24
609.541	780.89
609.99	781.24
610.44	766.19
610.889	762.74
611.339	757.79
611.788	753.09
612.238	758.99
612.687	767.79
613.136	782.74
613.586	785.59
614.035	795.59
614.484	797.34
614.933	805.69
615.383	798.59
615.832	767.64
616.281	751.09
616.73	726.84
617.179	702.84
617.628	693.64
618.077	682.44
618.526	667.54
618.975	668.49
619.424	652.44
619.873	656.74
620.322	643.89
620.771	656.14
621.22	649.59
621.669	629.29
622.118	631.49
622.567	622.49
623.015	604.79
623.464	617.19
623.913	599.59
624.361	607.54
624.81	596.44
625.259	592.59
625.707	586.64
626.156	594.19
626.604	600.49
627.053	596.54
627.501	596.74
627.95	602.04
628.398	616.54
628.847	608.04
629.295	603.64
629.744	621.94
630.192	637.89
630.64	686.94
631.089	761.74
631.537	798.24
631.985	803.94
632.433	839.69
632.881	833.54
633.33	991.79
633.778	1090.54
634.226	774.14
634.674	703.59
635.122	698.89
635.57	712.84
636.018	820.24
636.466	674.99
636.914	590.84
637.362	584.74
637.81	592.34
638.258	607.24
638.705	614.94
639.153	640.94
639.601	648.89
640.049	655.29
640.497	666.14
640.944	685.74
641.392	662.04
641.84	623.69
642.287	606.74
642.735	594.69
643.182	589.14
643.63	597.54
644.078	594.44
644.525	602.69
644.973	618.24
645.42	632.79
645.867	636.94
646.315	657.44
646.762	685.39
647.21	699.09
647.657	736.49
648.104	775.74
648.551	806.84
648.999	880.24
649.446	973.44
649.893	1110.64
650.34	1321.29
650.787	1643.44
651.234	2154.04
651.682	3010.74
652.129	4380.94
652.576	6366.19
653.023	8489.94
653.47	9902.24
653.917	10682.69
654.363	11070.69
654.81	11717.29
655.257	11777.44
655.704	8013.79
656.151	4674.94
656.598	2996.99
657.044	2140.79
657.491	1655.79
657.938	1325.64
658.385	1115.99
658.831	975.64
659.278	871.74
659.724	781.54
660.171	729.44
660.618	672.89
661.064	634.89
661.511	616.74
661.957	583.69
662.404	572.84
662.85	566.14
663.296	553.29
663.743	535.29
664.189	536.54
664.635	530.44
665.082	514.54
665.528	510.04
665.974	497.54
666.42	498.49
666.867	503.79
667.313	506.64
667.759	534.89
668.205	532.19
668.651	534.49
669.097	516.29
669.543	558.59
669.989	532.34
670.435	468.89
670.881	464.94
671.327	485.39
671.773	509.19
672.219	545.09
672.665	582.89
673.11	600.29
673.556	607.69
674.002	617.39
674.448	616.49
674.893	533.89
675.339	466.49
675.785	428.79
676.23	408.29
676.676	397.69
677.122	385.14
677.567	375.99
678.013	362.89
678.458	368.74
678.904	368.09
679.349	355.09
679.794	356.19
680.24	358.99
680.685	350.89
681.131	353.44
681.576	352.99
682.021	359.29
682.466	360.29
682.912	359.24
683.357	382.29
683.802	415.24
684.247	453.84
684.692	479.24
685.137	489.49
685.583	498.54
686.028	524.04
686.473	503.79
686.918	430.74
687.363	398.84
687.807	380.14
688.252	361.14
688.697	352.89
689.142	337.69
689.587	340.09
690.032	352.34
690.477	361.59
690.921	379.04
691.366	399.39
691.811	407.89
692.255	445.44
692.7	538.59
693.145	779.59
693.589	1171.29
694.034	1369.49
694.478	1441.39
694.923	1323.49
695.367	1812.14
695.812	1151.59
696.256	500.44
696.701	375.89
697.145	348.34
697.59	332.44
698.034	336.04
698.478	331.14
698.922	340.54
699.367	342.19
699.811	354.54
700.255	387.29
700.699	421.54
701.143	454.74
701.588	474.69
702.032	495.74
702.476	506.29
702.92	540.79
703.364	714.04
703.808	1075.79
704.252	1307.14
704.696	1367.29
705.14	1285.39
705.584	1712.99
706.027	1010.94
706.471	517.34
706.915	393.94
707.359	343.09
707.803	322.64
708.246	314.29
708.69	315.29
709.134	309.19
709.577	308.84
710.021	313.54
710.465	315.29
710.908	307.79
711.352	321.24
711.795	355.14
712.239	384.64
712.682	395.84
713.126	384.74
713.569	424.59
714.012	364.74
714.456	312.09
714.899	295.24
715.342	274.49
715.786	268.99
716.229	263.59
716.672	249.94
717.115	251.14
717.558	256.44
718.002	264.44
718.445	275.49
718.888	290.24
719.331	288.24
719.774	299.24
720.217	290.59
720.66	271.54
721.103	263.09
721.546	250.64
721.989	247.54
722.432	238.09
722.874	240.79
723.317	243.44
723.76	273.24
724.203	331.84
724.645	429.14
725.088	506.34
725.531	486.09
725.974	524.19
726.416	477.59
726.859	305.04
727.301	248.94
727.744	237.54
728.187	235.89
728.629	242.59
729.071	251.44
729.514	267.84
729.956	274.89
730.399	273.54
730.841	275.09
731.283	268.24
731.726	265.39
732.168	265.44
732.61	285.14
733.053	303.44
733.495	339.59
733.937	376.34
734.379	440.99
734.821	561.84
735.263	898.79
735.705	1552.49
736.148	2232.79
736.59	2194.79
737.032	2325.79
737.474	1953.24
737.916	801.09
738.357	421.04
738.799	329.14
739.241	301.89
739.683	299.64
740.125	304.74
740.567	308.34
741.008	318.99
741.45	336.94
741.892	346.24
742.334	344.84
742.775	344.69
743.217	322.04
743.658	280.84
744.1	286.59
744.542	320.09
744.983	328.84
745.425	340.59
745.866	344.09
746.307	304.79
746.749	333.64
747.19	489.94
747.632	941.39
748.073	1697.99
748.514	2278.94
748.956	3016.04
749.397	3486.54
749.838	2424.19
750.279	2247.29
750.72	1222.59
751.162	533.19
751.603	305.94
752.044	249.74
752.485	223.54
752.926	205.34
753.367	194.54
753.808	195.14
754.249	193.09
754.69	188.59
755.131	186.99
755.572	184.24
756.013	183.84
756.453	187.04
756.894	192.74
757.335	195.14
