Data from MSPlasma+Separation6_Subt14_10-15-48-356.txt Node
Date: Fri Jul 21 10:15:48 EDT 2017
User: Ender
Spectrometer: HR+D1039
Trigger mode: 0
Integration Time (sec): 2.510000E-3
Scans to average: 20
Electric dark correction enabled: true
Nonlinearity correction enabled: false
Boxcar width: 0
XAxis mode: Wavelengths
Number of Pixels in Spectrum: 2048
>>>>>Begin Spectral Data<<<<<
187.836	0.66
188.309	0.66
188.782	0.66
189.255	-0.14
189.728	1.96
190.201	3.16
190.674	-0.64
191.147	-5.64
191.619	-2.29
192.092	0.36
192.565	-4.89
193.038	4.56
193.511	4.31
193.984	-1.84
194.456	-0.24
194.929	0.06
195.402	-2.79
195.874	3.41
196.347	0.46
196.82	3.41
197.292	1.61
197.765	1.21
198.237	-2.49
198.71	-2.54
199.182	0.36
199.655	1.96
200.127	-0.24
200.6	-3.14
201.072	4.81
201.544	-4.24
202.017	4.26
202.489	-1.74
202.961	-1.94
203.433	-2.54
203.906	-2.04
204.378	-0.04
204.85	0.06
205.322	-4.59
205.794	0.76
206.266	-4.24
206.739	-0.34
207.211	-2.39
207.683	-4.89
208.155	1.31
208.627	-1.19
209.099	-1.49
209.57	-2.39
210.042	-1.39
210.514	0.81
210.986	0.31
211.458	-1.34
211.93	-0.59
212.402	2.71
212.873	-4.39
213.345	-4.39
213.817	2.86
214.288	-5.89
214.76	-0.94
215.232	-2.19
215.703	-4.49
216.175	-3.04
216.646	3.76
217.118	0.86
217.589	-7.09
218.061	2.56
218.532	-6.14
219.004	0.46
219.475	2.51
219.946	5.21
220.418	14.41
220.889	8.66
221.36	3.41
221.832	5.56
222.303	0.36
222.774	0.71
223.245	-3.19
223.717	-1.39
224.188	3.01
224.659	-0.24
225.13	-1.04
225.601	0.71
226.072	2.61
226.543	1.06
227.014	-2.79
227.485	-2.44
227.956	-0.49
228.427	8.16
228.898	2.41
229.369	2.96
229.839	3.81
230.31	5.76
230.781	0.71
231.252	3.61
231.722	7.31
232.193	6.76
232.664	7.86
233.135	14.01
233.605	15.06
234.076	14.61
234.546	11.41
235.017	16.06
235.487	13.31
235.958	12.36
236.428	22.11
236.899	32.06
237.369	39.71
237.84	28.26
238.31	36.66
238.78	31.56
239.251	37.91
239.721	34.56
240.191	24.46
240.662	18.31
241.132	13.46
241.602	17.16
242.072	23.56
242.542	25.01
243.013	15.06
243.483	20.56
243.953	9.11
244.423	12.61
244.893	11.61
245.363	18.86
245.833	14.86
246.303	14.41
246.773	30.16
247.243	24.76
247.712	27.61
248.182	36.61
248.652	37.91
249.122	57.46
249.592	111.71
250.061	163.81
250.531	261.96
251.001	209.46
251.471	167.76
251.94	127.81
252.41	69.81
252.879	46.11
253.349	39.06
253.818	26.11
254.288	24.26
254.757	26.86
255.227	33.06
255.696	24.91
256.166	22.51
256.635	27.76
257.105	36.31
257.574	46.06
258.043	45.71
258.513	83.26
258.982	97.46
259.451	79.41
259.92	70.71
260.389	72.41
260.859	43.31
261.328	59.61
261.797	84.56
262.266	72.61
262.735	35.96
263.204	17.26
263.673	16.96
264.142	9.81
264.611	18.96
265.08	24.01
265.549	19.56
266.018	20.36
266.487	15.01
266.955	15.31
267.424	21.46
267.893	24.41
268.362	22.36
268.83	20.71
269.299	20.81
269.768	26.81
270.236	34.26
270.705	34.81
271.174	36.16
271.642	34.01
272.111	39.71
272.579	61.31
273.048	106.76
273.516	138.31
273.985	141.31
274.453	108.11
274.922	60.71
275.39	38.16
275.858	38.21
276.327	29.91
276.795	30.16
277.263	35.16
277.731	42.76
278.2	98.06
278.668	121.36
279.136	96.31
279.604	59.96
280.072	29.46
280.54	29.51
281.008	34.66
281.477	37.86
281.945	33.56
282.413	32.96
282.881	36.56
283.348	34.46
283.816	40.96
284.284	39.36
284.752	36.46
285.22	40.51
285.688	43.01
286.156	74.71
286.623	205.81
287.091	400.86
287.559	204.96
288.026	83.76
288.494	49.46
288.962	45.46
289.429	39.01
289.897	38.31
290.364	33.81
290.832	32.36
291.3	36.21
291.767	40.36
292.234	45.81
292.702	38.96
293.169	43.36
293.637	45.16
294.104	42.61
294.571	40.06
295.039	43.06
295.506	36.26
295.973	41.21
296.44	39.96
296.908	47.46
297.375	53.66
297.842	52.51
298.309	41.06
298.776	41.16
299.243	48.36
299.71	43.36
300.177	43.56
300.644	48.16
301.111	54.36
301.578	48.66
302.045	43.76
302.512	43.06
302.979	49.56
303.446	50.11
303.913	50.56
304.379	56.51
304.846	65.71
305.313	68.86
305.78	87.21
306.246	105.06
306.713	111.71
307.18	100.51
307.646	105.76
308.113	93.46
308.579	72.26
309.046	75.46
309.512	74.31
309.979	64.61
310.445	57.16
310.912	61.61
311.378	66.46
311.845	63.41
312.311	59.11
312.777	54.06
313.244	64.51
313.71	63.56
314.176	75.41
314.642	83.96
315.109	94.46
315.575	93.46
316.041	81.41
316.507	77.31
316.973	90.56
317.439	90.31
317.905	98.31
318.371	96.21
318.837	90.66
319.303	95.21
319.769	83.06
320.235	101.06
320.701	110.66
321.167	118.41
321.633	150.96
322.099	200.96
322.564	271.61
323.03	211.41
323.496	143.21
323.962	135.81
324.427	130.41
324.893	111.66
325.359	110.81
325.824	97.46
326.29	100.31
326.755	92.91
327.221	94.91
327.686	107.16
328.152	93.76
328.617	90.21
329.083	91.76
329.548	93.26
330.014	96.96
330.479	110.21
330.944	132.81
331.41	150.11
331.875	141.21
332.34	147.86
332.805	169.76
333.271	216.76
333.736	289.16
334.201	256.96
334.666	195.21
335.131	215.66
335.596	175.91
336.061	177.61
336.526	181.16
336.991	155.51
337.456	167.46
337.921	139.26
338.386	109.76
338.851	100.71
339.316	93.26
339.781	88.41
340.246	90.51
340.711	89.81
341.175	87.41
341.64	95.61
342.105	94.26
342.569	107.21
343.034	111.31
343.499	114.36
343.963	116.41
344.428	109.61
344.893	115.86
345.357	116.11
345.822	112.81
346.286	115.41
346.751	118.46
347.215	117.76
347.679	123.81
348.144	136.96
348.608	126.36
349.073	134.06
349.537	149.31
350.001	146.01
350.465	141.06
350.93	127.66
351.394	131.21
351.858	124.81
352.322	139.16
352.786	136.21
353.25	137.31
353.715	134.76
354.179	149.41
354.643	147.16
355.107	149.01
355.571	156.06
356.035	164.91
356.498	164.21
356.962	167.91
357.426	169.31
357.89	154.91
358.354	144.26
358.818	141.31
359.281	148.41
359.745	160.26
360.209	143.96
360.673	152.36
361.136	154.81
361.6	152.51
362.064	158.16
362.527	166.21
362.991	161.76
363.454	166.66
363.918	174.26
364.381	164.11
364.845	161.61
365.308	156.26
365.772	161.46
366.235	164.71
366.698	174.41
367.162	206.11
367.625	231.91
368.088	191.41
368.552	169.56
369.015	170.81
369.478	186.21
369.941	190.41
370.404	188.01
370.867	204.26
371.331	211.31
371.794	209.71
372.257	234.91
372.72	245.41
373.183	239.56
373.646	240.11
374.109	237.86
374.572	276.16
375.035	332.96
375.497	245.56
375.96	201.56
376.423	187.86
376.886	188.41
377.349	192.16
377.811	197.46
378.274	201.31
378.737	200.41
379.199	203.61
379.662	214.71
380.125	229.06
380.587	253.36
381.05	263.71
381.512	255.16
381.975	251.21
382.437	255.26
382.9	248.06
383.362	249.56
383.825	267.56
384.287	337.21
384.75	377.01
385.212	338.86
385.674	277.71
386.136	250.46
386.599	248.56
387.061	254.01
387.523	266.86
387.985	273.16
388.447	282.71
388.91	328.66
389.372	391.41
389.834	366.11
390.296	300.36
390.758	301.41
391.22	311.16
391.682	378.56
392.144	576.06
392.606	531.06
393.068	328.06
393.529	297.51
393.991	290.36
394.453	283.31
394.915	296.36
395.377	358.31
395.838	432.36
396.3	313.86
396.762	240.76
397.224	232.56
397.685	223.51
398.147	231.61
398.608	228.96
399.07	237.76
399.531	227.56
399.993	240.81
400.454	236.16
400.916	236.86
401.377	244.86
401.839	251.61
402.3	247.21
402.762	261.46
403.223	286.61
403.684	283.86
404.145	264.91
404.607	264.06
405.068	262.36
405.529	271.61
405.99	275.16
406.451	277.41
406.913	271.86
407.374	275.01
407.835	278.86
408.296	294.81
408.757	290.16
409.218	300.66
409.679	304.21
410.14	304.46
410.601	322.26
411.062	330.06
411.522	379.01
411.983	424.81
412.444	356.66
412.905	317.76
413.366	304.71
413.826	327.81
414.287	361.96
414.748	429.26
415.208	431.66
415.669	357.66
416.13	334.41
416.59	329.81
417.051	342.26
417.511	352.76
417.972	377.71
418.432	405.51
418.893	439.71
419.353	429.16
419.814	326.31
420.274	297.21
420.734	292.66
421.195	315.66
421.655	322.96
422.115	319.41
422.576	308.76
423.036	301.91
423.496	317.91
423.956	340.31
424.416	370.41
424.876	409.26
425.336	402.51
425.797	405.56
426.257	407.16
426.717	380.41
427.177	365.31
427.637	371.61
428.097	396.91
428.556	418.86
429.016	454.46
429.476	451.46
429.936	436.36
430.396	422.91
430.856	428.36
431.315	437.56
431.775	472.81
432.235	490.06
432.694	507.31
433.154	475.51
433.614	459.36
434.073	444.31
434.533	405.86
434.993	384.81
435.452	390.96
435.912	385.01
436.371	376.51
436.83	380.36
437.29	382.26
437.749	363.86
438.209	358.61
438.668	363.76
439.127	361.16
439.587	354.26
440.046	346.56
440.505	345.56
440.964	351.71
441.424	353.81
441.883	365.56
442.342	351.11
442.801	331.06
443.26	340.16
443.719	336.96
444.178	328.16
444.637	332.66
445.096	335.46
445.555	343.56
446.014	341.96
446.473	336.91
446.932	331.61
447.391	339.51
447.849	343.06
448.308	343.66
448.767	352.66
449.226	354.01
449.685	363.56
450.143	376.61
450.602	378.11
451.061	361.81
451.519	365.16
451.978	371.46
452.436	388.41
452.895	372.26
453.353	354.76
453.812	363.36
454.27	358.71
454.729	345.76
455.187	351.66
455.646	348.56
456.104	355.11
456.562	356.71
457.021	349.96
457.479	337.51
457.937	347.36
458.395	351.41
458.854	352.71
459.312	346.46
459.77	350.76
460.228	356.71
460.686	358.71
461.144	359.31
461.602	355.26
462.06	354.21
462.518	369.66
462.976	363.96
463.434	366.16
463.892	371.76
464.35	381.36
464.808	388.91
465.266	387.31
465.724	395.16
466.181	389.56
466.639	387.91
467.097	406.96
467.555	417.56
468.012	420.06
468.47	425.76
468.928	434.76
469.385	449.56
469.843	451.66
470.3	452.66
470.758	466.91
471.215	471.46
471.673	484.31
472.13	501.56
472.588	508.36
473.045	513.16
473.503	519.31
473.96	538.81
474.417	551.41
474.875	569.11
475.332	594.91
475.789	602.01
476.246	619.31
476.704	652.76
477.161	673.01
477.618	693.16
478.075	738.01
478.532	792.66
478.989	868.96
479.446	965.36
479.903	1024.06
480.36	1128.76
480.817	1210.66
481.274	1304.76
481.731	1430.21
482.188	1544.06
482.645	1660.41
483.102	1754.16
483.558	1873.06
484.015	1980.16
484.472	1976.71
484.929	1913.86
485.385	1818.26
485.842	1766.61
486.299	1667.26
486.755	1514.86
487.212	1342.26
487.668	1200.66
488.125	1101.61
488.582	1012.91
489.038	966.46
489.494	927.06
489.951	898.01
490.407	871.96
490.864	862.81
491.32	831.01
491.776	825.51
492.233	828.06
492.689	815.71
493.145	798.11
493.602	797.96
494.058	802.61
494.514	818.51
494.97	821.36
495.426	832.41
495.882	827.81
496.338	837.06
496.794	867.26
497.251	867.56
497.707	872.26
498.163	870.46
498.618	867.41
499.074	882.26
499.53	899.11
499.986	916.16
500.442	923.01
500.898	925.66
501.354	935.06
501.809	945.46
502.265	956.91
502.721	1000.21
503.177	1028.21
503.632	969.91
504.088	976.86
504.543	1063.96
504.999	997.16
505.455	879.51
505.91	841.66
506.366	824.11
506.821	825.66
507.277	821.76
507.732	826.91
508.187	834.51
508.643	833.81
509.098	830.61
509.553	839.96
510.009	848.41
510.464	868.21
510.919	879.46
511.375	886.01
511.83	896.51
512.285	916.66
512.74	937.21
513.195	945.31
513.65	971.31
514.105	976.31
514.56	979.61
515.015	993.91
515.47	1009.21
515.925	1000.06
516.38	994.46
516.835	996.01
517.29	990.06
517.745	1000.06
518.2	974.21
518.655	950.06
519.109	937.56
519.564	927.76
520.019	931.51
520.474	917.16
520.928	898.36
521.383	907.91
521.838	912.91
522.292	894.56
522.747	890.36
523.201	892.51
523.656	870.26
524.11	874.86
524.565	870.26
525.019	874.61
525.474	879.26
525.928	875.31
526.382	857.86
526.837	857.46
527.291	858.31
527.745	852.66
528.2	853.06
528.654	839.31
529.108	847.91
529.562	859.11
530.016	852.71
530.47	850.06
530.925	846.61
531.379	849.51
531.833	862.81
532.287	854.56
532.741	850.56
533.195	850.56
533.649	855.96
534.103	859.61
534.556	848.46
535.01	856.61
535.464	848.86
535.918	862.81
536.372	863.81
536.826	862.21
537.279	850.26
537.733	850.11
538.187	858.76
538.64	861.91
539.094	863.96
539.548	874.26
540.001	869.61
540.455	875.66
540.908	881.61
541.362	889.76
541.815	900.41
542.269	922.01
542.722	905.46
543.175	924.76
543.629	922.76
544.082	935.31
544.536	931.81
544.989	945.76
545.442	949.91
545.895	945.71
546.349	948.11
546.802	950.36
547.255	948.41
547.708	955.76
548.161	963.56
548.614	965.86
549.067	966.36
549.52	961.11
549.973	949.26
550.426	954.41
550.879	932.86
551.332	936.66
551.785	946.41
552.238	955.06
552.691	952.71
553.144	967.71
553.596	989.81
554.049	996.86
554.502	1004.51
554.955	1028.46
555.407	1041.66
555.86	1038.36
556.313	1021.36
556.765	1009.76
557.218	993.91
557.67	1004.16
558.123	983.01
558.576	988.11
559.028	974.71
559.48	993.21
559.933	977.56
560.385	953.66
560.838	928.36
561.29	899.01
561.742	900.71
562.195	882.31
562.647	876.06
563.099	871.76
563.551	868.81
564.004	879.86
564.456	869.56
564.908	853.26
565.36	836.76
565.812	822.81
566.264	822.86
566.716	804.16
567.168	783.66
567.62	796.16
568.072	787.21
568.524	770.31
568.976	771.41
569.428	767.96
569.88	766.51
570.332	770.26
570.784	773.86
571.235	753.61
571.687	773.81
572.139	772.36
572.59	774.36
573.042	783.31
573.494	779.16
573.945	763.51
574.397	754.71
574.849	758.41
575.3	757.96
575.752	743.46
576.203	738.06
576.655	744.56
577.106	734.11
577.557	726.91
578.009	727.76
578.46	728.11
578.912	720.21
579.363	727.46
579.814	727.91
580.265	727.96
580.717	725.51
581.168	715.91
581.619	721.96
582.07	733.91
582.521	734.96
582.972	730.76
583.423	737.61
583.875	757.21
584.326	799.81
584.777	869.71
585.227	958.61
585.678	1010.66
586.129	1035.11
586.58	1054.21
587.031	1052.71
587.482	1116.16
587.933	1297.46
588.384	1201.46
588.834	990.56
589.285	845.46
589.736	828.01
590.186	828.81
590.637	820.66
591.088	801.71
591.538	797.41
591.989	786.41
592.439	778.86
592.89	774.66
593.34	776.71
593.791	785.26
594.241	783.81
594.692	796.36
595.142	787.51
595.593	777.86
596.043	784.81
596.493	787.46
596.943	812.36
597.394	798.56
597.844	786.61
598.294	797.01
598.744	828.01
599.195	864.86
599.645	910.81
600.095	948.76
600.545	999.36
600.995	1039.11
601.445	1074.66
601.895	1118.36
602.345	1154.66
602.795	1130.16
603.245	1074.26
603.695	1012.71
604.145	964.06
604.594	921.46
605.044	873.41
605.494	824.31
605.944	788.76
606.393	773.71
606.843	765.21
607.293	761.16
607.743	757.76
608.192	772.16
608.642	767.26
609.091	774.31
609.541	771.36
609.99	764.96
610.44	749.46
610.889	743.71
611.339	740.51
611.788	730.26
612.238	740.41
612.687	743.76
613.136	758.06
613.586	771.01
614.035	771.21
614.484	777.16
614.933	786.06
615.383	764.76
615.832	741.01
616.281	725.16
616.73	705.66
617.179	686.56
617.628	674.86
618.077	663.36
618.526	655.11
618.975	657.96
619.424	634.76
619.873	641.81
620.322	634.16
620.771	631.26
621.22	624.96
621.669	616.71
622.118	604.26
622.567	603.76
623.015	595.76
623.464	596.36
623.913	580.51
624.361	587.71
624.81	581.26
625.259	576.81
625.707	570.06
626.156	571.56
626.604	589.16
627.053	579.26
627.501	576.41
627.95	586.86
628.398	590.36
628.847	584.76
629.295	588.06
629.744	597.66
630.192	613.51
630.64	660.46
631.089	734.16
631.537	760.46
631.985	770.01
632.433	800.91
632.881	794.81
633.33	951.71
633.778	1032.61
634.226	737.71
634.674	683.36
635.122	673.46
635.57	678.36
636.018	792.06
636.466	645.41
636.914	573.46
637.362	567.61
637.81	576.61
638.258	589.66
638.705	596.96
639.153	617.66
639.601	626.71
640.049	638.36
640.497	653.01
640.944	661.86
641.392	640.51
641.84	602.86
642.287	583.36
642.735	568.36
643.182	570.26
643.63	570.41
644.078	575.46
644.525	582.21
644.973	601.86
645.42	616.56
645.867	615.96
646.315	634.36
646.762	664.66
647.21	678.61
647.657	715.21
648.104	755.81
648.551	778.01
648.999	855.41
649.446	950.91
649.893	1073.06
650.34	1290.71
650.787	1604.31
651.234	2091.31
651.682	2948.71
652.129	4302.16
652.576	6223.81
653.023	8298.26
653.47	9644.71
653.917	10352.41
654.363	10663.36
654.81	11208.96
655.257	11241.71
655.704	7676.41
656.151	4482.21
656.598	2871.56
657.044	2048.86
657.491	1589.31
657.938	1289.61
658.385	1083.26
658.831	946.36
659.278	836.76
659.724	760.71
660.171	707.91
660.618	652.06
661.064	617.16
661.511	595.36
661.957	566.51
662.404	562.11
662.85	550.86
663.296	539.21
663.743	521.16
664.189	516.66
664.635	514.01
665.082	504.01
665.528	499.16
665.974	483.26
666.42	488.51
666.867	491.11
667.313	491.46
667.759	513.76
668.205	515.61
668.651	522.31
669.097	498.61
669.543	547.86
669.989	519.11
670.435	450.21
670.881	445.31
671.327	469.96
671.773	495.76
672.219	533.16
672.665	571.26
673.11	580.61
673.556	590.66
674.002	599.26
674.448	603.66
674.893	509.61
675.339	454.56
675.785	414.41
676.23	396.21
676.676	382.76
677.122	375.16
677.567	364.21
678.013	347.11
678.458	350.16
678.904	347.96
679.349	347.26
679.794	346.21
680.24	345.76
680.685	339.96
681.131	341.86
681.576	341.51
682.021	349.46
682.466	349.86
682.912	351.46
683.357	370.16
683.802	403.96
684.247	440.41
684.692	464.96
685.137	475.31
685.583	485.21
686.028	507.96
686.473	485.61
686.918	414.21
687.363	380.66
687.807	367.61
688.252	346.11
688.697	338.31
689.142	327.06
689.587	333.61
690.032	336.26
690.477	349.81
690.921	369.96
691.366	392.31
691.811	405.76
692.255	440.16
692.7	528.01
693.145	770.16
693.589	1151.96
694.034	1354.71
694.478	1402.46
694.923	1266.46
695.367	1734.76
695.812	1103.36
696.256	491.66
696.701	364.11
697.145	332.16
697.59	323.71
698.034	319.06
698.478	319.56
698.922	323.76
699.367	333.51
699.811	343.96
700.255	380.96
700.699	409.16
701.143	437.31
701.588	465.36
702.032	473.06
702.476	492.96
702.92	524.86
703.364	702.46
703.808	1062.51
704.252	1280.91
704.696	1344.21
705.14	1248.61
705.584	1645.26
706.027	966.86
706.471	501.86
706.915	372.86
707.359	336.56
707.803	317.01
708.246	296.01
708.69	301.51
709.134	293.36
709.577	302.66
710.021	305.86
710.465	301.66
710.908	300.36
711.352	313.31
711.795	350.06
712.239	374.16
712.682	380.11
713.126	373.66
713.569	417.56
714.012	345.21
714.456	305.61
714.899	282.71
715.342	271.11
715.786	256.21
716.229	252.71
716.672	245.91
717.115	244.16
717.558	249.91
718.002	256.71
718.445	265.96
718.888	283.71
719.331	287.01
719.774	290.41
720.217	282.26
720.66	265.41
721.103	254.16
721.546	245.11
721.989	233.06
722.432	228.96
722.874	231.16
723.317	234.86
723.76	259.21
724.203	322.61
724.645	424.26
725.088	488.86
725.531	471.86
725.974	509.46
726.416	460.61
726.859	292.66
727.301	237.01
727.744	232.96
728.187	231.21
728.629	235.81
729.071	248.71
729.514	259.21
729.956	267.31
730.399	272.06
730.841	265.91
731.283	260.26
731.726	251.16
732.168	261.91
732.61	275.96
733.053	292.56
733.495	325.21
733.937	362.46
734.379	430.41
734.821	552.31
735.263	873.31
735.705	1536.26
736.148	2168.56
736.59	2117.66
737.032	2238.16
737.474	1882.26
737.916	774.76
738.357	413.41
738.799	319.26
739.241	291.21
739.683	291.01
740.125	291.46
740.567	296.61
741.008	308.61
741.45	326.06
741.892	332.46
742.334	332.56
742.775	336.41
743.217	311.81
743.658	274.91
744.1	277.16
744.542	308.76
744.983	314.71
745.425	330.11
745.866	331.01
746.307	299.86
746.749	328.16
747.19	477.51
747.632	930.91
748.073	1660.11
748.514	2224.86
748.956	2931.16
749.397	3370.71
749.838	2342.66
750.279	2167.56
750.72	1182.66
751.162	506.51
751.603	296.71
752.044	239.11
752.485	212.16
752.926	198.01
753.367	193.46
753.808	191.26
754.249	180.36
754.69	186.61
755.131	182.16
755.572	182.81
756.013	177.21
756.453	179.71
756.894	188.51
757.335	186.51
757.776	184.51
758.216	194.31
