Data from MSPlasma+Separation6_Subt14_10-14-48-442.txt Node
Date: Fri Jul 21 10:14:48 EDT 2017
User: Ender
Spectrometer: HR+D1039
Trigger mode: 0
Integration Time (sec): 6.430000E-3
Scans to average: 20
Electric dark correction enabled: true
Nonlinearity correction enabled: false
Boxcar width: 0
XAxis mode: Wavelengths
Number of Pixels in Spectrum: 2048
>>>>>Begin Spectral Data<<<<<
187.836	-0.89
188.309	-0.89
188.782	-0.89
189.255	3.36
189.728	3.96
190.201	-2.74
190.674	0.06
191.147	0.71
191.619	-3.49
192.092	-1.59
192.565	-2.79
193.038	1.01
193.511	3.06
193.984	-2.34
194.456	1.96
194.929	-1.94
195.402	-1.09
195.874	2.71
196.347	1.76
196.82	1.11
197.292	-1.49
197.765	-0.04
198.237	-4.99
198.71	-4.94
199.182	-0.64
199.655	3.81
200.127	-1.49
200.6	0.61
201.072	3.26
201.544	-2.49
202.017	3.36
202.489	2.76
202.961	-2.14
203.433	1.56
203.906	-2.84
204.378	-2.99
204.85	3.21
205.322	2.91
205.794	5.26
206.266	4.81
206.739	7.51
207.211	-0.59
207.683	1.61
208.155	2.61
208.627	-0.49
209.099	6.31
209.57	5.11
210.042	3.31
210.514	6.11
210.986	13.96
211.458	23.86
211.93	12.21
212.402	4.06
212.873	1.06
213.345	-2.59
213.817	2.46
214.288	-0.59
214.76	1.86
215.232	0.76
215.703	3.96
216.175	6.56
216.646	5.01
217.118	3.21
217.589	-1.89
218.061	2.81
218.532	4.96
219.004	10.26
219.475	13.56
219.946	28.66
220.418	37.91
220.889	25.66
221.36	17.66
221.832	11.81
222.303	4.66
222.774	7.61
223.245	1.61
223.717	1.91
224.188	7.41
224.659	9.76
225.13	1.61
225.601	7.46
226.072	6.31
226.543	12.41
227.014	12.31
227.485	10.81
227.956	9.66
228.427	15.46
228.898	11.71
229.369	9.91
229.839	9.06
230.31	15.46
230.781	16.31
231.252	20.11
231.722	26.26
232.193	33.41
232.664	39.96
233.135	59.96
233.605	61.11
234.076	50.91
234.546	39.36
235.017	44.66
235.487	45.06
235.958	40.81
236.428	64.71
236.899	104.86
237.369	121.46
237.84	86.71
238.31	109.81
238.78	110.06
239.251	110.26
239.721	111.36
240.191	85.11
240.662	53.56
241.132	40.46
241.602	50.61
242.072	72.61
242.542	86.16
243.013	57.96
243.483	56.51
243.953	37.21
244.423	40.71
244.893	50.46
245.363	57.66
245.833	54.36
246.303	59.16
246.773	78.01
247.243	76.66
247.712	89.21
248.182	105.71
248.652	112.71
249.122	169.16
249.592	312.96
250.061	468.21
250.531	753.81
251.001	573.81
251.471	473.01
251.94	356.06
252.41	194.06
252.879	134.26
253.349	104.01
253.818	85.46
254.288	73.81
254.757	74.36
255.227	96.26
255.696	77.36
256.166	69.76
256.635	72.86
257.105	87.86
257.574	126.76
258.043	128.41
258.513	228.41
258.982	287.01
259.451	200.56
259.92	199.51
260.389	190.01
260.859	134.36
261.328	160.56
261.797	240.46
262.266	209.06
262.735	99.61
263.204	60.91
263.673	51.56
264.142	44.11
264.611	50.26
265.08	56.56
265.549	57.36
266.018	54.36
266.487	50.81
266.955	47.41
267.424	58.76
267.893	58.11
268.362	55.31
268.83	53.01
269.299	62.56
269.768	68.41
270.236	83.71
270.705	89.36
271.174	79.76
271.642	93.46
272.111	113.01
272.579	176.61
273.048	273.86
273.516	351.31
273.985	355.36
274.453	269.96
274.922	165.61
275.39	99.56
275.858	95.91
276.327	80.16
276.795	80.31
277.263	91.71
277.731	126.96
278.2	251.91
278.668	337.31
279.136	261.21
279.604	162.51
280.072	91.06
280.54	79.36
281.008	83.06
281.477	80.01
281.945	89.56
282.413	83.01
282.881	87.11
283.348	90.01
283.816	92.66
284.284	100.86
284.752	100.81
285.22	95.91
285.688	107.61
286.156	179.46
286.623	490.21
287.091	963.56
287.559	496.81
288.026	192.06
288.494	119.86
288.962	98.91
289.429	93.06
289.897	83.91
290.364	80.96
290.832	86.21
291.3	88.31
291.767	87.21
292.234	91.31
292.702	97.86
293.169	103.76
293.637	108.41
294.104	110.81
294.571	104.26
295.039	103.71
295.506	102.51
295.973	108.71
296.44	100.71
296.908	112.36
297.375	129.71
297.842	122.66
298.309	102.41
298.776	107.76
299.243	113.96
299.71	110.86
300.177	104.71
300.644	118.76
301.111	130.96
301.578	122.91
302.045	107.06
302.512	108.36
302.979	114.26
303.446	124.06
303.913	119.46
304.379	129.21
304.846	145.11
305.313	159.71
305.78	187.56
306.246	229.06
306.713	238.26
307.18	209.16
307.646	231.46
308.113	206.36
308.579	158.11
309.046	156.86
309.512	156.86
309.979	147.96
310.445	135.11
310.912	143.01
311.378	141.51
311.845	144.96
312.311	135.21
312.777	135.21
313.244	147.11
313.71	149.91
314.176	166.86
314.642	190.51
315.109	217.86
315.575	204.91
316.041	187.46
316.507	181.16
316.973	203.96
317.439	189.26
317.905	211.01
318.371	209.66
318.837	196.36
319.303	208.06
319.769	192.86
320.235	212.26
320.701	244.91
321.167	261.36
321.633	314.06
322.099	434.66
322.564	576.36
323.03	453.51
323.496	319.31
323.962	299.71
324.427	280.96
324.893	245.06
325.359	236.61
325.824	209.91
326.29	219.71
326.755	216.26
327.221	220.31
327.686	230.01
328.152	212.96
328.617	200.16
329.083	202.21
329.548	211.46
330.014	226.21
330.479	237.46
330.944	277.76
331.41	319.11
331.875	308.81
332.34	318.51
332.805	368.71
333.271	468.51
333.736	619.56
334.201	553.51
334.666	413.86
335.131	470.96
335.596	373.06
336.061	390.76
336.526	396.46
336.991	348.16
337.456	375.81
337.921	302.21
338.386	248.46
338.851	223.36
339.316	213.01
339.781	210.06
340.246	208.21
340.711	209.46
341.175	208.86
341.64	214.16
342.105	215.71
342.569	235.41
343.034	249.51
343.499	260.16
343.963	248.26
344.428	246.26
344.893	253.11
345.357	257.81
345.822	248.21
346.286	254.06
346.751	265.11
347.215	262.36
347.679	270.51
348.144	296.71
348.608	287.96
349.073	301.31
349.537	329.31
350.001	328.16
350.465	304.76
350.93	292.66
351.394	292.76
351.858	289.86
352.322	303.96
352.786	303.11
353.25	295.46
353.715	307.16
354.179	321.96
354.643	336.11
355.107	340.91
355.571	360.56
356.035	370.06
356.498	361.61
356.962	395.61
357.426	382.11
357.89	337.26
358.354	324.61
358.818	319.86
359.281	323.31
359.745	349.66
360.209	336.51
360.673	347.91
361.136	349.36
361.6	345.56
362.064	363.81
362.527	371.86
362.991	369.56
363.454	375.81
363.918	381.16
364.381	367.51
364.845	358.86
365.308	358.61
365.772	354.76
366.235	365.61
366.698	385.21
367.162	457.16
367.625	512.41
368.088	417.56
368.552	385.86
369.015	389.06
369.478	416.71
369.941	427.31
370.404	433.86
370.867	462.81
371.331	466.01
371.794	468.16
372.257	531.21
372.72	558.91
373.183	526.11
373.646	530.36
374.109	526.26
374.572	614.06
375.035	712.86
375.497	548.31
375.96	447.16
376.423	426.16
376.886	422.31
377.349	430.41
377.811	441.16
378.274	446.31
378.737	454.41
379.199	465.61
379.662	479.81
380.125	513.26
380.587	560.56
381.05	601.16
381.512	596.91
381.975	575.86
382.437	577.01
382.9	574.36
383.362	569.51
383.825	606.91
384.287	766.21
384.75	858.26
385.212	755.96
385.674	623.51
386.136	572.21
386.599	561.91
387.061	587.16
387.523	616.26
387.985	620.96
388.447	640.76
388.91	713.16
389.372	863.66
389.834	811.31
390.296	676.31
390.758	685.91
391.22	706.06
391.682	865.51
392.144	1348.96
392.606	1261.46
393.068	735.26
393.529	669.11
393.991	647.66
394.453	637.66
394.915	667.36
395.377	817.86
395.838	1008.71
396.3	715.16
396.762	551.56
397.224	519.61
397.685	515.26
398.147	518.71
398.608	518.76
399.07	527.21
399.531	521.06
399.993	527.11
400.454	540.51
400.916	531.01
401.377	554.16
401.839	553.56
402.3	558.46
402.762	586.41
403.223	649.01
403.684	655.81
404.145	606.01
404.607	588.56
405.068	591.36
405.529	605.81
405.99	615.56
406.451	618.81
406.913	609.76
407.374	611.96
407.835	621.66
408.296	642.66
408.757	641.66
409.218	666.96
409.679	668.86
410.14	680.16
410.601	709.11
411.062	739.76
411.522	848.01
411.983	939.56
412.444	802.56
412.905	702.06
413.366	702.86
413.826	718.41
414.287	804.56
414.748	951.76
415.208	976.31
415.669	811.01
416.13	748.81
416.59	724.16
417.051	759.01
417.511	780.86
417.972	844.61
418.432	900.66
418.893	1009.71
419.353	956.36
419.814	746.26
420.274	675.16
420.734	668.96
421.195	709.21
421.655	741.91
422.115	718.61
422.576	696.96
423.036	695.31
423.496	714.56
423.956	751.81
424.416	805.36
424.876	914.61
425.336	907.16
425.797	903.96
426.257	902.21
426.717	847.61
427.177	801.76
427.637	826.51
428.097	867.46
428.556	912.01
429.016	992.41
429.476	979.31
429.936	946.31
430.396	923.11
430.856	930.66
431.315	959.51
431.775	1025.91
432.235	1078.76
432.694	1095.16
433.154	1031.86
433.614	1004.01
434.073	969.86
434.533	882.31
434.993	854.56
435.452	858.11
435.912	844.71
436.371	836.71
436.83	839.06
437.29	845.21
437.749	808.86
438.209	790.51
438.668	803.71
439.127	805.46
439.587	794.01
440.046	760.26
440.505	775.26
440.964	775.61
441.424	785.56
441.883	807.11
442.342	769.96
442.801	742.06
443.26	768.81
443.719	758.36
444.178	744.91
444.637	759.31
445.096	750.46
445.555	767.66
446.014	764.51
446.473	750.81
446.932	747.51
447.391	762.11
447.849	779.41
448.308	768.26
448.767	788.51
449.226	803.66
449.685	810.76
450.143	841.36
450.602	844.61
451.061	807.41
451.519	822.76
451.978	838.76
452.436	867.81
452.895	831.06
453.353	802.91
453.812	812.06
454.27	800.21
454.729	781.96
455.187	787.41
455.646	794.21
456.104	804.46
456.562	795.56
457.021	784.41
457.479	753.51
457.937	774.51
458.395	800.76
458.854	791.16
459.312	778.71
459.77	788.41
460.228	799.96
460.686	805.46
461.144	814.66
461.602	803.56
462.06	799.86
462.518	823.01
462.976	824.76
463.434	828.61
463.892	833.51
464.35	852.91
464.808	866.31
465.266	876.36
465.724	896.91
466.181	893.36
466.639	890.36
467.097	921.91
467.555	948.41
468.012	944.41
468.47	954.51
468.928	989.51
469.385	1009.56
469.843	1023.46
470.3	1013.41
470.758	1050.41
471.215	1060.56
471.673	1087.41
472.13	1118.46
472.588	1140.46
473.045	1139.36
473.503	1163.41
473.96	1212.46
474.417	1230.01
474.875	1279.61
475.332	1327.76
475.789	1363.41
476.246	1390.26
476.704	1460.86
477.161	1491.16
477.618	1545.81
478.075	1636.46
478.532	1762.11
478.989	1903.01
479.446	2106.56
479.903	2231.96
480.36	2459.21
480.817	2615.41
481.274	2828.51
481.731	3090.21
482.188	3343.71
482.645	3604.91
483.102	3819.21
483.558	4083.61
484.015	4287.01
484.472	4301.96
484.929	4176.86
485.385	3981.96
485.842	3869.91
486.299	3668.41
486.755	3299.06
487.212	2942.61
487.668	2646.66
488.125	2449.71
488.582	2250.51
489.038	2163.56
489.494	2083.66
489.951	2023.16
490.407	1969.11
490.864	1944.81
491.32	1891.36
491.776	1858.86
492.233	1862.31
492.689	1840.41
493.145	1809.71
493.602	1794.76
494.058	1829.01
494.514	1866.66
494.97	1871.01
495.426	1876.26
495.882	1892.46
496.338	1907.01
496.794	1973.21
497.251	1994.01
497.707	1992.16
498.163	1995.71
498.618	1992.76
499.074	2003.46
499.53	2045.91
499.986	2075.26
500.442	2104.56
500.898	2113.96
501.354	2145.96
501.809	2157.86
502.265	2186.21
502.721	2303.36
503.177	2356.91
503.632	2236.41
504.088	2247.71
504.543	2472.51
504.999	2302.36
505.455	2034.51
505.91	1930.11
506.366	1906.41
506.821	1899.86
507.277	1875.76
507.732	1886.66
508.187	1881.06
508.643	1907.86
509.098	1905.71
509.553	1923.06
510.009	1943.56
510.464	1990.76
510.919	2012.56
511.375	2027.86
511.83	2049.41
512.285	2099.86
512.74	2150.86
513.195	2174.56
513.65	2208.66
514.105	2254.36
514.56	2255.01
515.015	2304.51
515.47	2334.16
515.925	2326.16
516.38	2306.66
516.835	2302.61
517.29	2281.11
517.745	2300.46
518.2	2253.81
518.655	2200.41
519.109	2160.26
519.564	2142.66
520.019	2134.76
520.474	2107.16
520.928	2090.01
521.383	2075.71
521.838	2083.26
522.292	2055.76
522.747	2034.01
523.201	2030.66
523.656	2003.81
524.11	1996.16
524.565	1992.51
525.019	1997.01
525.474	2008.46
525.928	2005.11
526.382	1982.61
526.837	1957.11
527.291	1973.31
527.745	1964.51
528.2	1955.56
528.654	1941.06
529.108	1953.46
529.562	1962.91
530.016	1951.06
530.47	1957.21
530.925	1963.41
531.379	1969.21
531.833	1989.46
532.287	1975.96
532.741	1955.56
533.195	1966.96
533.649	1970.86
534.103	1974.26
534.556	1944.41
535.01	1974.31
535.464	1963.36
535.918	1972.96
536.372	1976.31
536.826	1965.01
537.279	1954.51
537.733	1960.01
538.187	1964.66
538.64	1975.71
539.094	1992.61
539.548	2026.36
540.001	2000.21
540.455	2018.66
540.908	2021.46
541.362	2055.21
541.815	2068.41
542.269	2102.36
542.722	2094.86
543.175	2123.56
543.629	2136.96
544.082	2153.41
544.536	2190.41
544.989	2180.86
545.442	2179.21
545.895	2178.46
546.349	2179.91
546.802	2191.76
547.255	2194.71
547.708	2205.01
548.161	2224.06
548.614	2219.91
549.067	2240.36
549.52	2216.61
549.973	2189.06
550.426	2171.31
550.879	2159.06
551.332	2152.71
551.785	2180.21
552.238	2194.96
552.691	2195.51
553.144	2234.21
553.596	2264.66
554.049	2289.66
554.502	2346.56
554.955	2377.01
555.407	2417.26
555.86	2381.01
556.313	2364.26
556.765	2341.16
557.218	2321.21
557.67	2316.76
558.123	2278.71
558.576	2265.86
559.028	2269.36
559.48	2295.41
559.933	2275.61
560.385	2202.36
560.838	2131.96
561.29	2082.81
561.742	2065.61
562.195	2021.11
562.647	2011.91
563.099	2007.96
563.551	2006.81
564.004	2025.31
564.456	2011.51
564.908	1956.81
565.36	1919.01
565.812	1894.86
566.264	1868.11
566.716	1848.01
567.168	1814.71
567.62	1834.11
568.072	1807.56
568.524	1784.06
568.976	1784.21
569.428	1766.66
569.88	1756.21
570.332	1768.51
570.784	1769.01
571.235	1757.66
571.687	1773.66
572.139	1778.06
572.59	1782.81
573.042	1793.46
573.494	1795.61
573.945	1765.51
574.397	1742.06
574.849	1734.01
575.3	1737.76
575.752	1709.41
576.203	1701.46
576.655	1704.21
577.106	1690.41
577.557	1675.36
578.009	1668.31
578.46	1673.56
578.912	1657.16
579.363	1667.86
579.814	1674.11
580.265	1654.66
580.717	1662.21
581.168	1656.96
581.619	1671.11
582.07	1692.16
582.521	1681.81
582.972	1680.81
583.423	1709.76
583.875	1762.51
584.326	1866.21
584.777	2064.56
585.227	2298.76
585.678	2483.26
586.129	2526.81
586.58	2583.06
587.031	2594.91
587.482	2779.56
587.933	3313.46
588.384	3014.56
588.834	2397.91
589.285	1968.51
589.736	1912.46
590.186	1906.81
590.637	1888.81
591.088	1842.96
591.538	1825.11
591.989	1808.61
592.439	1793.81
592.89	1789.26
593.34	1798.36
593.791	1805.61
594.241	1811.36
594.692	1841.26
595.142	1810.96
595.593	1776.56
596.043	1785.36
596.493	1815.26
596.943	1860.26
597.394	1836.56
597.844	1810.36
598.294	1842.46
598.744	1898.31
599.195	1987.21
599.645	2095.66
600.095	2198.66
600.545	2303.41
600.995	2402.86
601.445	2476.01
601.895	2610.31
602.345	2679.01
602.795	2636.96
603.245	2506.46
603.695	2374.01
604.145	2239.46
604.594	2118.96
605.044	2019.81
605.494	1895.06
605.944	1807.81
606.393	1766.86
606.843	1739.11
607.293	1757.36
607.743	1748.76
608.192	1759.91
608.642	1766.81
609.091	1768.31
609.541	1768.16
609.99	1767.31
610.44	1729.01
610.889	1719.61
611.339	1698.01
611.788	1679.26
612.238	1698.96
612.687	1725.71
613.136	1748.06
613.586	1768.01
614.035	1779.36
614.484	1795.96
614.933	1805.96
615.383	1757.86
615.832	1697.36
616.281	1657.86
616.73	1613.86
617.179	1570.26
617.628	1536.11
618.077	1517.51
618.526	1490.86
618.975	1471.81
619.424	1457.41
619.873	1464.11
620.322	1458.21
620.771	1442.86
621.22	1420.71
621.669	1391.06
622.118	1383.11
622.567	1374.51
623.015	1343.51
623.464	1354.71
623.913	1325.16
624.361	1335.01
624.81	1330.81
625.259	1331.06
625.707	1297.51
626.156	1313.36
626.604	1328.16
627.053	1336.46
627.501	1323.01
627.95	1338.66
628.398	1357.56
628.847	1339.86
629.295	1351.56
629.744	1373.46
630.192	1396.81
630.64	1520.71
631.089	1682.66
631.537	1757.36
631.985	1755.01
632.433	1832.41
632.881	1837.26
633.33	2222.91
633.778	2422.21
634.226	1687.26
634.674	1555.81
635.122	1542.91
635.57	1564.86
636.018	1827.06
636.466	1478.81
636.914	1307.61
637.362	1291.51
637.81	1313.61
638.258	1351.41
638.705	1362.51
639.153	1405.51
639.601	1404.96
640.049	1433.21
640.497	1473.91
640.944	1517.91
641.392	1452.16
641.84	1370.56
642.287	1307.96
642.735	1306.71
643.182	1287.91
643.63	1294.16
644.078	1298.16
644.525	1313.86
644.973	1349.01
645.42	1371.01
645.867	1392.36
646.315	1412.61
646.762	1463.36
647.21	1509.11
647.657	1593.06
648.104	1658.96
648.551	1722.41
648.999	1868.26
649.446	2065.86
649.893	2330.06
650.34	2754.66
650.787	3438.86
651.234	4486.66
651.682	6316.96
652.129	9065.86
652.576	12989.31
653.023	15534.96
653.47	15538.16
653.917	15538.21
654.363	15538.11
654.81	15535.11
655.257	15535.76
655.704	15535.36
656.151	9714.71
656.598	6289.41
657.044	4445.26
657.491	3442.41
657.938	2778.11
658.385	2349.66
658.831	2054.41
659.278	1836.91
659.724	1678.96
660.171	1562.26
660.618	1454.56
661.064	1361.86
661.511	1306.21
661.957	1269.76
662.404	1233.61
662.85	1218.21
663.296	1200.16
663.743	1173.16
664.189	1162.71
664.635	1158.01
665.082	1133.76
665.528	1123.51
665.974	1090.86
666.42	1087.51
666.867	1102.56
667.313	1120.46
667.759	1178.11
668.205	1168.76
668.651	1191.21
669.097	1144.16
669.543	1264.86
669.989	1176.46
670.435	1021.41
670.881	1013.86
671.327	1048.26
671.773	1130.21
672.219	1209.86
672.665	1284.06
673.11	1325.51
673.556	1337.36
674.002	1366.61
674.448	1374.51
674.893	1173.41
675.339	1027.41
675.785	940.31
676.23	907.26
676.676	865.56
677.122	845.61
677.567	820.66
678.013	800.51
678.458	793.91
678.904	791.31
679.349	789.96
679.794	783.51
680.24	782.81
680.685	777.36
681.131	774.81
681.576	781.66
682.021	779.16
682.466	784.81
682.912	801.21
683.357	835.16
683.802	906.36
684.247	990.06
684.692	1050.46
685.137	1093.41
685.583	1096.51
686.028	1161.96
686.473	1097.06
686.918	953.61
687.363	875.11
687.807	837.91
688.252	797.16
688.697	769.01
689.142	743.46
689.587	748.26
690.032	762.21
690.477	794.36
690.921	839.76
691.366	882.46
691.811	913.16
692.255	982.61
692.7	1204.06
693.145	1743.16
693.589	2642.96
694.034	3127.86
694.478	3299.81
694.923	2993.01
695.367	4248.21
695.812	2606.16
696.256	1112.36
696.701	817.96
697.145	760.91
697.59	734.56
698.034	727.66
698.478	728.76
698.922	730.71
699.367	750.56
699.811	783.31
700.255	854.66
700.699	923.31
701.143	1003.86
701.588	1053.91
702.032	1090.36
702.476	1129.81
702.92	1199.96
703.364	1577.76
703.808	2410.16
704.252	2996.36
704.696	3145.06
705.14	2934.11
705.584	4010.66
706.027	2249.96
706.471	1149.01
706.915	849.11
707.359	761.76
707.803	712.21
708.246	690.91
708.69	687.86
709.134	689.66
709.577	680.76
710.021	685.36
710.465	685.11
710.908	679.86
711.352	706.31
711.795	789.76
712.239	842.11
712.682	867.01
713.126	859.56
713.569	952.96
714.012	789.61
714.456	701.01
714.899	653.76
715.342	613.26
715.786	594.16
716.229	578.51
716.672	558.16
717.115	553.76
717.558	565.81
718.002	583.06
718.445	607.26
718.888	641.86
719.331	651.66
719.774	663.06
720.217	642.31
720.66	611.11
721.103	579.66
721.546	554.31
721.989	541.91
722.432	528.51
722.874	523.81
723.317	532.26
723.76	587.66
724.203	721.21
724.645	952.81
725.088	1122.86
725.531	1084.11
725.974	1186.66
726.416	1062.41
726.859	662.96
727.301	548.71
727.744	526.31
728.187	525.86
728.629	534.16
729.071	553.26
729.514	581.51
729.956	602.56
730.399	616.21
730.841	612.26
731.283	598.11
731.726	582.11
732.168	587.96
732.61	621.21
733.053	670.81
733.495	746.31
733.937	826.86
734.379	974.76
734.821	1254.71
735.263	1981.01
735.705	3568.46
736.148	5198.36
736.59	5132.11
737.032	5511.31
737.474	4566.41
737.916	1763.66
738.357	935.51
738.799	719.71
739.241	666.61
739.683	676.51
740.125	689.46
740.567	690.41
741.008	722.41
741.45	747.86
741.892	771.81
742.334	772.96
742.775	757.31
743.217	725.06
743.658	625.66
