Data from MSPlasma+Separation6_Subt14_10-15-34-154.txt Node
Date: Fri Jul 21 10:15:34 EDT 2017
User: Ender
Spectrometer: HR+D1039
Trigger mode: 0
Integration Time (sec): 2.510000E-3
Scans to average: 20
Electric dark correction enabled: true
Nonlinearity correction enabled: false
Boxcar width: 0
XAxis mode: Wavelengths
Number of Pixels in Spectrum: 2048
>>>>>Begin Spectral Data<<<<<
187.836	1.68
188.309	1.68
188.782	1.68
189.255	0.73
189.728	1.88
190.201	0.63
190.674	0.28
191.147	-0.97
191.619	2.28
192.092	-1.82
192.565	2.03
193.038	0.38
193.511	1.63
193.984	1.78
194.456	-3.17
194.929	-1.82
195.402	-5.82
195.874	0.33
196.347	2.08
196.82	3.28
197.292	-1.82
197.765	-1.72
198.237	1.63
198.71	-6.37
199.182	2.53
199.655	3.93
200.127	-1.07
200.6	-2.12
201.072	1.78
201.544	-2.12
202.017	-2.82
202.489	0.33
202.961	-5.67
203.433	-1.32
203.906	-2.52
204.378	1.03
204.85	-7.07
205.322	-2.62
205.794	1.88
206.266	-4.72
206.739	2.18
207.211	-2.37
207.683	-1.37
208.155	-0.22
208.627	0.28
209.099	1.28
209.57	0.98
210.042	-1.57
210.514	6.83
210.986	3.68
211.458	8.03
211.93	3.08
212.402	2.53
212.873	-2.17
213.345	-4.27
213.817	-0.37
214.288	-0.87
214.76	4.68
215.232	-2.02
215.703	-2.52
216.175	4.03
216.646	-0.42
217.118	1.38
217.589	-4.47
218.061	-1.07
218.532	-1.87
219.004	1.13
219.475	5.33
219.946	10.48
220.418	14.53
220.889	7.58
221.36	6.13
221.832	4.53
222.303	6.18
222.774	1.03
223.245	-4.22
223.717	-0.17
224.188	3.73
224.659	4.48
225.13	-1.77
225.601	1.28
226.072	0.63
226.543	5.78
227.014	1.63
227.485	0.78
227.956	2.18
228.427	8.73
228.898	4.38
229.369	3.13
229.839	7.18
230.31	5.38
230.781	0.48
231.252	7.78
231.722	8.13
232.193	9.48
232.664	12.53
233.135	22.58
233.605	23.58
234.076	18.63
234.546	14.28
235.017	18.18
235.487	15.38
235.958	12.98
236.428	28.68
236.899	38.73
237.369	47.73
237.84	31.58
238.31	41.68
238.78	37.18
239.251	40.73
239.721	42.73
240.191	29.78
240.662	19.03
241.132	10.08
241.602	21.13
242.072	28.43
242.542	30.43
243.013	19.68
243.483	19.58
243.953	12.48
244.423	11.53
244.893	15.23
245.363	24.43
245.833	21.23
246.303	18.68
246.773	30.63
247.243	31.43
247.712	37.73
248.182	42.73
248.652	42.88
249.122	66.83
249.592	125.18
250.061	185.28
250.531	304.53
251.001	231.43
251.471	195.28
251.94	143.38
252.41	75.73
252.879	50.58
253.349	45.78
253.818	32.58
254.288	28.08
254.757	29.38
255.227	41.13
255.696	30.83
256.166	28.48
256.635	30.98
257.105	36.93
257.574	46.83
258.043	50.53
258.513	100.48
258.982	121.78
259.451	86.68
259.92	81.03
260.389	76.43
260.859	56.78
261.328	67.83
261.797	96.88
262.266	88.03
262.735	40.28
263.204	22.48
263.673	25.78
264.142	12.78
264.611	20.43
265.08	19.08
265.549	20.03
266.018	19.93
266.487	21.58
266.955	20.18
267.424	24.68
267.893	24.38
268.362	25.13
268.83	22.43
269.299	24.23
269.768	27.83
270.236	35.88
270.705	35.13
271.174	36.78
271.642	37.88
272.111	42.58
272.579	80.73
273.048	120.18
273.516	150.88
273.985	156.63
274.453	117.93
274.922	64.43
275.39	42.78
275.858	40.38
276.327	35.78
276.795	37.18
277.263	37.18
277.731	49.98
278.2	104.03
278.668	135.23
279.136	109.53
279.604	66.88
280.072	39.93
280.54	35.83
281.008	41.08
281.477	38.23
281.945	36.78
282.413	36.73
282.881	41.53
283.348	43.98
283.816	40.58
284.284	44.13
284.752	39.53
285.22	44.43
285.688	45.33
286.156	80.63
286.623	229.58
287.091	439.43
287.559	230.13
288.026	90.18
288.494	55.18
288.962	43.88
289.429	41.93
289.897	41.23
290.364	38.08
290.832	35.78
291.3	36.28
291.767	42.38
292.234	43.18
292.702	41.78
293.169	46.33
293.637	49.58
294.104	44.83
294.571	47.73
295.039	47.43
295.506	41.48
295.973	49.78
296.44	43.23
296.908	48.38
297.375	57.83
297.842	59.53
298.309	46.98
298.776	49.18
299.243	56.88
299.71	50.58
300.177	51.63
300.644	50.08
301.111	60.08
301.578	59.08
302.045	55.48
302.512	47.88
302.979	51.23
303.446	51.38
303.913	57.08
304.379	63.63
304.846	69.63
305.313	79.63
305.78	89.48
306.246	110.53
306.713	113.28
307.18	99.23
307.646	115.13
308.113	98.43
308.579	77.53
309.046	77.08
309.512	75.78
309.979	70.43
310.445	62.08
310.912	68.18
311.378	68.38
311.845	68.33
312.311	61.43
312.777	61.43
313.244	64.53
313.71	67.28
314.176	81.88
314.642	88.88
315.109	109.93
315.575	97.73
316.041	91.63
316.507	83.53
316.973	97.58
317.439	92.43
317.905	101.33
318.371	98.98
318.837	93.48
319.303	95.23
319.769	92.38
320.235	103.98
320.701	119.98
321.167	124.93
321.633	152.68
322.099	210.38
322.564	277.63
323.03	221.88
323.496	153.78
323.962	148.13
324.427	139.58
324.893	122.13
325.359	114.78
325.824	98.23
326.29	106.13
326.755	106.53
327.221	103.03
327.686	111.58
328.152	101.13
328.617	94.33
329.083	100.98
329.548	104.63
330.014	103.13
330.479	119.23
330.944	136.68
331.41	155.68
331.875	144.13
332.34	153.58
332.805	178.83
333.271	224.73
333.736	300.73
334.201	267.33
334.666	203.38
335.131	226.03
335.596	182.88
336.061	189.03
336.526	193.08
336.991	172.58
337.456	183.08
337.921	146.73
338.386	116.38
338.851	108.58
339.316	101.98
339.781	96.58
340.246	100.08
340.711	97.53
341.175	103.28
341.64	101.78
342.105	103.98
342.569	113.88
343.034	117.88
343.499	122.53
343.963	120.38
344.428	116.28
344.893	121.18
345.357	125.83
345.822	122.28
346.286	123.48
346.751	129.18
347.215	125.13
347.679	129.23
348.144	143.08
348.608	137.63
349.073	144.98
349.537	161.28
350.001	156.93
350.465	152.13
350.93	140.98
351.394	142.18
351.858	139.63
352.322	148.98
352.786	146.18
353.25	144.43
353.715	147.13
354.179	155.13
354.643	156.18
355.107	161.98
355.571	170.83
356.035	181.18
356.498	174.68
356.962	179.98
357.426	179.83
357.89	162.78
358.354	159.08
358.818	152.93
359.281	156.88
359.745	162.93
360.209	162.98
360.673	163.53
361.136	170.73
361.6	161.23
362.064	172.38
362.527	181.58
362.991	182.23
363.454	180.08
363.918	184.08
364.381	179.13
364.845	174.13
365.308	177.58
365.772	171.28
366.235	174.23
366.698	180.93
367.162	219.58
367.625	247.18
368.088	203.43
368.552	181.23
369.015	180.08
369.478	201.33
369.941	201.48
370.404	208.33
370.867	215.48
371.331	220.48
371.794	221.68
372.257	248.68
372.72	261.98
373.183	248.73
373.646	253.53
374.109	249.68
374.572	294.23
375.035	351.68
375.497	264.68
375.96	216.98
376.423	202.73
376.886	200.63
377.349	205.83
377.811	212.58
378.274	211.98
378.737	211.93
379.199	218.98
379.662	217.98
380.125	241.73
380.587	263.83
381.05	283.43
381.512	280.03
381.975	273.58
382.437	269.78
382.9	269.58
383.362	260.98
383.825	292.63
384.287	365.63
384.75	405.63
385.212	361.08
385.674	295.73
386.136	270.68
386.599	266.38
387.061	276.43
387.523	283.93
387.985	289.08
388.447	299.73
388.91	338.33
389.372	415.88
389.834	386.08
390.296	324.58
390.758	325.53
391.22	343.03
391.682	413.18
392.144	629.88
392.606	595.13
393.068	353.33
393.529	318.48
393.991	309.13
394.453	305.43
394.915	320.73
395.377	389.58
395.838	473.78
396.3	338.03
396.762	260.58
397.224	251.08
397.685	248.43
398.147	251.58
398.608	257.53
399.07	255.53
399.531	249.58
399.993	253.38
400.454	259.73
400.916	255.08
401.377	263.78
401.839	266.03
402.3	266.58
402.762	280.23
403.223	310.73
403.684	315.98
404.145	287.08
404.607	284.28
405.068	283.58
405.529	285.08
405.99	289.98
406.451	296.88
406.913	287.43
407.374	295.23
407.835	295.68
408.296	310.88
408.757	311.08
409.218	318.33
409.679	317.63
410.14	324.83
410.601	338.53
411.062	354.18
411.522	408.93
411.983	450.53
412.444	383.58
412.905	336.08
413.366	342.33
413.826	343.03
414.287	387.68
414.748	454.03
415.208	458.88
415.669	388.58
416.13	359.23
416.59	349.28
417.051	357.03
417.511	380.98
417.972	400.33
418.432	433.93
418.893	477.78
419.353	462.38
419.814	356.03
420.274	322.68
420.734	319.68
421.195	332.83
421.655	349.63
422.115	344.68
422.576	329.88
423.036	327.28
423.496	345.48
423.956	363.83
424.416	389.08
424.876	436.43
425.336	431.88
425.797	430.73
426.257	432.88
426.717	403.33
427.177	388.13
427.637	396.63
428.097	417.68
428.556	435.33
429.016	473.78
429.476	476.53
429.936	461.28
430.396	450.38
430.856	452.68
431.315	460.33
431.775	499.98
432.235	522.88
432.694	535.13
433.154	507.83
433.614	491.83
434.073	473.28
434.533	429.63
434.993	416.03
435.452	418.93
435.912	407.33
436.371	405.43
436.83	404.28
437.29	410.03
437.749	379.48
438.209	383.13
438.668	381.23
439.127	387.88
439.587	379.13
440.046	364.03
440.505	369.13
440.964	368.28
441.424	378.03
441.883	385.98
442.342	371.93
442.801	350.43
443.26	361.43
443.719	357.38
444.178	357.63
444.637	361.58
445.096	356.68
445.555	375.03
446.014	374.63
446.473	358.88
446.932	361.88
447.391	359.93
447.849	365.13
448.308	356.68
448.767	378.08
449.226	378.73
449.685	381.83
450.143	393.93
450.602	400.03
451.061	379.73
451.519	388.88
451.978	396.43
452.436	410.33
452.895	390.48
453.353	382.18
453.812	386.83
454.27	375.03
454.729	365.88
455.187	367.18
455.646	378.13
456.104	373.93
456.562	381.03
457.021	367.63
457.479	358.78
457.937	366.58
458.395	374.93
458.854	377.13
459.312	367.78
459.77	371.38
460.228	378.48
460.686	383.13
461.144	383.08
461.602	378.03
462.06	375.73
462.518	385.98
462.976	386.28
463.434	390.98
463.892	392.48
464.35	398.73
464.808	400.83
465.266	412.43
465.724	424.08
466.181	417.83
466.639	411.58
467.097	436.53
467.555	440.58
468.012	444.78
468.47	444.53
468.928	462.98
469.385	474.78
469.843	484.13
470.3	480.88
470.758	494.88
471.215	502.83
471.673	505.68
472.13	529.88
472.588	537.73
473.045	540.93
473.503	540.63
473.96	573.38
474.417	580.83
474.875	606.63
475.332	630.63
475.789	642.03
476.246	659.28
476.704	690.98
477.161	700.58
477.618	729.18
478.075	769.48
478.532	831.58
478.989	909.68
479.446	1009.98
479.903	1070.78
480.36	1183.53
480.817	1266.48
481.274	1363.18
481.731	1499.58
482.188	1619.23
482.645	1752.28
483.102	1851.48
483.558	1989.43
484.015	2096.13
484.472	2087.48
484.929	2028.38
485.385	1933.03
485.842	1883.98
486.299	1780.33
486.755	1602.43
487.212	1435.58
487.668	1274.03
488.125	1170.48
488.582	1078.13
489.038	1035.48
489.494	992.08
489.951	951.58
490.407	923.03
490.864	909.93
491.32	891.83
491.776	877.48
492.233	871.13
492.689	855.23
493.145	851.53
493.602	837.23
494.058	854.13
494.514	865.63
494.97	863.33
495.426	872.33
495.882	877.18
496.338	881.03
496.794	904.23
497.251	905.98
497.707	911.63
498.163	920.68
498.618	909.93
499.074	926.03
499.53	941.73
499.986	960.58
500.442	970.98
500.898	973.28
501.354	992.43
501.809	990.43
502.265	1005.03
502.721	1050.88
503.177	1083.08
503.632	1022.13
504.088	1034.23
504.543	1125.38
504.999	1060.18
505.455	936.33
505.91	882.33
506.366	878.18
506.821	873.18
507.277	878.33
507.732	870.53
508.187	869.08
508.643	882.28
509.098	880.58
509.553	885.08
510.009	905.78
510.464	926.73
510.919	932.83
511.375	933.58
511.83	943.03
512.285	960.53
512.74	980.78
513.195	990.28
513.65	1017.18
514.105	1026.58
514.56	1030.28
515.015	1047.78
515.47	1064.33
515.925	1059.18
516.38	1046.53
516.835	1047.98
517.29	1046.78
517.745	1052.58
518.2	1034.98
518.655	1009.68
519.109	990.98
519.564	981.38
520.019	982.53
520.474	968.58
520.928	964.43
521.383	959.53
521.838	954.53
522.292	944.18
522.747	931.93
523.201	928.58
523.656	925.43
524.11	921.03
524.565	909.13
525.019	913.73
525.474	925.88
525.928	919.58
526.382	908.38
526.837	907.68
527.291	906.58
527.745	904.08
528.2	895.78
528.654	888.03
529.108	902.18
529.562	898.63
530.016	903.03
530.47	903.93
530.925	900.18
531.379	897.48
531.833	914.48
532.287	897.58
532.741	900.83
533.195	901.88
533.649	894.98
534.103	900.93
534.556	892.63
535.01	904.08
535.464	895.78
535.918	900.23
536.372	905.18
536.826	900.63
537.279	899.58
537.733	890.63
538.187	898.28
538.64	899.28
539.094	912.23
539.548	918.93
540.001	916.63
540.455	923.63
540.908	932.33
541.362	941.48
541.815	944.68
542.269	974.78
542.722	948.58
543.175	968.38
543.629	974.98
544.082	980.03
544.536	991.33
544.989	981.28
545.442	994.53
545.895	993.23
546.349	999.78
546.802	1000.78
547.255	1004.73
547.708	1004.78
548.161	1015.63
548.614	1006.83
549.067	1022.48
549.52	1019.43
549.973	1005.53
550.426	998.23
550.879	980.93
551.332	984.68
551.785	995.13
552.238	1007.08
552.691	1002.18
553.144	1010.28
553.596	1032.98
554.049	1042.08
554.502	1058.73
554.955	1076.68
555.407	1088.93
555.86	1079.08
556.313	1072.88
556.765	1067.38
557.218	1044.68
557.67	1057.03
558.123	1032.18
558.576	1028.13
559.028	1018.68
559.48	1039.18
559.933	1043.53
560.385	1002.68
560.838	977.23
561.29	942.83
561.742	952.53
562.195	925.58
562.647	917.43
563.099	918.23
563.551	916.68
564.004	923.68
564.456	907.53
564.908	900.68
565.36	881.08
565.812	861.73
566.264	859.43
566.716	844.78
567.168	837.13
567.62	842.28
568.072	831.28
568.524	818.73
568.976	812.33
569.428	813.23
569.88	805.38
570.332	812.83
570.784	807.48
571.235	796.68
571.687	812.23
572.139	815.93
572.59	817.23
573.042	822.58
573.494	823.68
573.945	807.13
574.397	790.78
574.849	784.73
575.3	798.33
575.752	780.88
576.203	772.18
576.655	777.23
577.106	773.48
577.557	762.88
578.009	761.63
578.46	773.83
578.912	754.93
579.363	768.48
579.814	763.53
580.265	760.13
580.717	761.58
581.168	755.33
581.619	760.68
582.07	779.03
582.521	770.48
582.972	758.23
583.423	769.38
583.875	792.83
584.326	837.43
584.777	909.93
585.227	993.23
585.678	1061.38
586.129	1080.23
586.58	1100.68
587.031	1102.53
587.482	1174.13
587.933	1359.33
588.384	1271.63
588.834	1046.93
589.285	889.23
589.736	863.13
590.186	871.53
590.637	857.28
591.088	839.68
591.538	827.23
591.989	825.53
592.439	818.13
592.89	811.08
593.34	820.28
593.791	821.78
594.241	820.38
594.692	836.93
595.142	823.33
595.593	808.33
596.043	818.13
596.493	830.53
596.943	843.38
597.394	839.13
597.844	821.63
598.294	836.03
598.744	859.53
599.195	898.08
599.645	951.88
600.095	990.88
600.545	1039.38
600.995	1092.18
601.445	1120.43
601.895	1179.03
602.345	1207.03
602.795	1190.93
603.245	1133.43
603.695	1070.03
604.145	1018.43
604.594	965.33
605.044	912.63
605.494	869.78
605.944	821.48
606.393	809.43
606.843	799.43
607.293	807.73
607.743	797.93
608.192	802.13
608.642	803.53
609.091	806.38
609.541	802.93
609.99	808.18
610.44	784.98
610.889	783.03
611.339	773.33
611.788	768.18
612.238	774.88
612.687	779.23
613.136	793.78
613.586	805.13
614.035	805.78
614.484	812.08
614.933	823.33
615.383	805.08
615.832	771.98
616.281	764.33
616.73	735.23
617.179	712.53
617.628	698.83
618.077	697.13
618.526	687.88
618.975	681.68
619.424	663.28
619.873	664.88
620.322	663.93
620.771	666.53
621.22	646.78
621.669	641.38
622.118	632.78
622.567	631.88
623.015	620.68
623.464	620.28
623.913	608.98
624.361	614.98
624.81	605.83
625.259	604.93
625.707	589.53
626.156	599.18
626.604	606.83
627.053	610.28
627.501	609.28
627.95	617.68
628.398	620.68
628.847	611.63
629.295	621.78
629.744	622.58
630.192	644.08
630.64	694.43
631.089	761.78
631.537	792.48
631.985	797.63
632.433	834.18
632.881	828.03
633.33	985.43
633.778	1082.58
634.226	770.33
634.674	709.18
635.122	710.38
635.57	714.48
636.018	829.23
636.466	678.03
636.914	595.23
637.362	599.53
637.81	603.68
638.258	621.93
638.705	623.63
639.153	654.23
639.601	648.18
640.049	660.13
640.497	679.73
640.944	698.38
641.392	678.18
641.84	633.18
642.287	608.33
642.735	597.23
643.182	600.08
643.63	601.33
644.078	600.03
644.525	611.48
644.973	633.08
645.42	642.68
645.867	644.18
646.315	669.58
646.762	689.03
647.21	719.73
647.657	746.93
648.104	792.73
648.551	821.48
648.999	891.48
649.446	992.93
649.893	1133.13
650.34	1335.03
650.787	1649.08
651.234	2170.53
651.682	3034.78
652.129	4401.23
652.576	6385.98
653.023	8518.53
653.47	9952.48
653.917	10770.53
654.363	11158.73
654.81	11830.98
655.257	11902.48
655.704	8126.83
656.151	4751.18
656.598	3061.18
657.044	2163.93
657.491	1678.83
657.938	1355.23
658.385	1134.58
658.831	991.08
659.278	882.83
659.724	798.08
660.171	745.38
660.618	688.63
661.064	648.73
661.511	619.58
661.957	604.48
662.404	578.68
662.85	575.63
663.296	568.88
663.743	553.18
664.189	544.98
664.635	537.13
665.082	525.03
665.528	523.48
665.974	507.18
666.42	509.13
666.867	507.68
667.313	507.68
667.759	546.68
668.205	535.48
668.651	539.88
669.097	519.48
669.543	568.33
669.989	537.68
670.435	478.08
670.881	466.28
671.327	491.68
671.773	523.18
672.219	561.53
672.665	588.33
673.11	609.98
673.556	617.28
674.002	625.48
674.448	626.93
674.893	536.83
675.339	480.78
675.785	440.73
676.23	416.78
676.676	400.43
677.122	392.53
677.567	383.83
678.013	369.08
678.458	366.58
678.904	369.88
679.349	362.93
679.794	363.38
680.24	363.88
680.685	357.88
681.131	354.13
681.576	356.23
682.021	365.33
682.466	371.78
682.912	368.33
683.357	388.58
683.802	418.28
684.247	461.53
684.692	484.73
685.137	502.78
685.583	511.78
686.028	534.88
686.473	508.73
686.918	442.43
687.363	399.98
687.807	387.33
688.252	368.63
688.697	356.08
689.142	346.78
689.587	351.08
690.032	360.13
690.477	366.33
690.921	383.78
691.366	404.38
691.811	421.98
692.255	455.73
692.7	549.13
693.145	794.13
693.589	1187.03
694.034	1390.28
694.478	1470.28
694.923	1343.63
695.367	1857.83
695.812	1177.03
696.256	513.78
696.701	381.28
697.145	350.98
697.59	340.53
698.034	336.98
698.478	334.08
698.922	338.83
699.367	344.58
699.811	365.33
700.255	392.98
700.699	425.83
701.143	458.73
701.588	487.73
702.032	496.78
702.476	509.08
702.92	549.73
703.364	725.63
703.808	1098.33
704.252	1340.23
704.696	1398.78
705.14	1317.08
705.584	1754.68
706.027	1020.93
706.471	527.68
706.915	398.03
707.359	351.43
707.803	335.38
708.246	315.28
708.69	320.08
709.134	311.78
709.577	313.23
710.021	317.43
710.465	315.83
710.908	314.53
711.352	329.98
711.795	362.38
712.239	387.63
712.682	397.88
713.126	389.93
713.569	433.93
714.012	368.98
714.456	324.68
714.899	305.23
715.342	279.18
715.786	270.13
716.229	264.08
716.672	260.88
717.115	259.93
717.558	263.13
718.002	266.68
718.445	280.03
718.888	296.73
719.331	296.43
719.774	311.03
720.217	298.78
720.66	279.83
721.103	268.63
721.546	253.73
721.989	242.03
722.432	242.53
722.874	241.33
723.317	246.63
723.76	269.48
724.203	329.78
724.645	437.98
725.088	514.23
725.531	491.28
725.974	539.98
726.416	481.33
726.859	310.93
727.301	248.58
727.744	238.13
728.187	244.18
728.629	243.53
729.071	258.93
729.514	263.28
729.956	274.03
730.399	281.03
730.841	286.53
731.283	272.78
731.726	261.38
732.168	268.33
732.61	286.63
733.053	310.33
733.495	340.58
733.937	381.33
734.379	443.68
734.821	559.98
735.263	901.83
735.705	1582.63
736.148	2258.73
736.59	2231.93
737.032	2403.48
737.474	2001.93
737.916	811.58
738.357	425.83
738.799	335.18
739.241	304.78
739.683	308.13
740.125	306.58
740.567	308.33
741.008	336.08
741.45	342.83
741.892	361.63
742.334	353.18
742.775	354.68
743.217	326.63
743.658	291.18
744.1	289.33
744.542	325.03
744.983	331.78
745.425	341.48
745.866	347.23
746.307	314.93
746.749	341.68
747.19	489.23
747.632	960.93
748.073	1720.23
748.514	2318.38
748.956	3079.83
749.397	3556.73
749.838	2476.68
750.279	2327.03
750.72	1255.73
751.162	543.83
751.603	317.73
752.044	252.93
752.485	220.43
752.926	213.63
753.367	201.83
753.808	201.28
754.249	194.68
754.69	190.33
755.131	189.68
755.572	191.33
756.013	190.18
756.453	189.03
756.894	197.48
