Data from MSPlasma+Separation6_Subt14_10-15-04-901.txt Node
Date: Fri Jul 21 10:15:04 EDT 2017
User: Ender
Spectrometer: HR+D1039
Trigger mode: 0
Integration Time (sec): 6.430000E-3
Scans to average: 20
Electric dark correction enabled: true
Nonlinearity correction enabled: false
Boxcar width: 0
XAxis mode: Wavelengths
Number of Pixels in Spectrum: 2048
>>>>>Begin Spectral Data<<<<<
187.836	2.66
188.309	2.66
188.782	2.66
189.255	2.41
189.728	1.01
190.201	-1.99
190.674	-1.09
191.147	-4.29
191.619	-0.04
192.092	-0.89
192.565	-0.89
193.038	0.51
193.511	2.71
193.984	1.71
194.456	-0.74
194.929	2.26
195.402	-3.09
195.874	-0.24
196.347	2.11
196.82	1.01
197.292	-1.64
197.765	-1.89
198.237	-4.89
198.71	-5.54
199.182	-3.44
199.655	2.86
200.127	0.86
200.6	3.01
201.072	3.26
201.544	-2.04
202.017	2.36
202.489	2.86
202.961	-0.79
203.433	-3.34
203.906	-3.39
204.378	4.16
204.85	2.11
205.322	0.36
205.794	7.76
206.266	1.26
206.739	8.66
207.211	0.81
207.683	-1.64
208.155	0.16
208.627	2.91
209.099	5.36
209.57	7.16
210.042	7.36
210.514	4.71
210.986	13.76
211.458	23.51
211.93	12.46
212.402	5.56
212.873	2.61
213.345	-3.04
213.817	3.26
214.288	1.06
214.76	0.96
215.232	2.01
215.703	1.41
216.175	6.31
216.646	3.96
217.118	8.46
217.589	3.56
218.061	7.21
218.532	4.11
219.004	9.86
219.475	13.81
219.946	29.61
220.418	39.41
220.889	26.66
221.36	12.31
221.832	7.66
222.303	5.26
222.774	2.86
223.245	1.16
223.717	1.46
224.188	9.66
224.659	4.11
225.13	3.41
225.601	7.96
226.072	6.11
226.543	12.11
227.014	5.41
227.485	7.56
227.956	11.21
228.427	10.51
228.898	7.91
229.369	12.06
229.839	9.91
230.31	12.51
230.781	16.26
231.252	23.76
231.722	23.41
232.193	39.31
232.664	34.51
233.135	53.66
233.605	57.31
234.076	48.36
234.546	40.21
235.017	46.71
235.487	41.96
235.958	45.61
236.428	56.86
236.899	95.46
237.369	108.46
237.84	80.86
238.31	104.01
238.78	100.86
239.251	103.71
239.721	100.01
240.191	79.01
240.662	51.06
241.132	43.31
241.602	47.46
242.072	72.36
242.542	81.91
243.013	57.61
243.483	53.51
243.953	38.66
244.423	41.91
244.893	50.41
245.363	59.46
245.833	53.11
246.303	53.66
246.773	76.71
247.243	75.16
247.712	85.46
248.182	104.86
248.652	105.56
249.122	167.66
249.592	298.46
250.061	456.96
250.531	727.01
251.001	548.96
251.471	456.56
251.94	340.01
252.41	187.21
252.879	133.36
253.349	103.26
253.818	83.46
254.288	66.46
254.757	71.56
255.227	95.96
255.696	76.41
256.166	65.51
256.635	69.41
257.105	90.36
257.574	117.06
258.043	125.31
258.513	222.36
258.982	275.46
259.451	196.51
259.92	192.41
260.389	181.46
260.859	131.76
261.328	153.01
261.797	225.31
262.266	201.36
262.735	95.81
263.204	61.61
263.673	52.66
264.142	43.86
264.611	48.66
265.08	55.56
265.549	58.21
266.018	55.06
266.487	51.36
266.955	49.86
267.424	58.16
267.893	58.06
268.362	59.51
268.83	57.01
269.299	63.96
269.768	68.91
270.236	81.96
270.705	90.41
271.174	83.46
271.642	99.06
272.111	108.86
272.579	176.46
273.048	275.51
273.516	342.41
273.985	346.16
274.453	267.11
274.922	163.01
275.39	105.46
275.858	97.31
276.327	82.86
276.795	81.16
277.263	92.76
277.731	117.61
278.2	232.31
278.668	304.21
279.136	232.21
279.604	151.16
280.072	90.46
280.54	80.76
281.008	86.01
281.477	81.96
281.945	92.21
282.413	92.51
282.881	94.76
283.348	89.01
283.816	95.71
284.284	99.81
284.752	102.76
285.22	100.51
285.688	105.56
286.156	182.41
286.623	493.86
287.091	980.21
287.559	508.46
288.026	191.71
288.494	122.36
288.962	99.41
289.429	99.61
289.897	87.96
290.364	85.46
290.832	89.96
291.3	95.16
291.767	99.36
292.234	99.96
292.702	100.91
293.169	106.81
293.637	114.56
294.104	109.31
294.571	108.16
295.039	109.36
295.506	104.16
295.973	114.71
296.44	109.16
296.908	116.91
297.375	134.26
297.842	129.76
298.309	117.96
298.776	115.11
299.243	120.91
299.71	109.51
300.177	113.51
300.644	126.06
301.111	139.21
301.578	127.31
302.045	119.46
302.512	120.91
302.979	120.61
303.446	124.41
303.913	131.96
304.379	140.51
304.846	152.91
305.313	166.96
305.78	194.16
306.246	237.96
306.713	254.06
307.18	221.86
307.646	244.96
308.113	213.01
308.579	167.21
309.046	166.26
309.512	170.71
309.979	152.91
310.445	147.81
310.912	150.36
311.378	151.66
311.845	149.41
312.311	144.06
312.777	152.16
313.244	154.11
313.71	162.46
314.176	176.86
314.642	201.66
315.109	234.06
315.575	218.56
316.041	200.81
316.507	195.21
316.973	206.51
317.439	204.46
317.905	228.51
318.371	229.06
318.837	216.06
319.303	219.46
319.769	203.91
320.235	230.71
320.701	265.76
321.167	281.36
321.633	334.51
322.099	463.26
322.564	615.46
323.03	486.41
323.496	334.96
323.962	321.86
324.427	302.71
324.893	265.46
325.359	254.71
325.824	222.36
326.29	232.01
326.755	235.01
327.221	240.56
327.686	249.01
328.152	224.51
328.617	213.01
329.083	221.06
329.548	233.71
330.014	237.61
330.479	252.16
330.944	298.01
331.41	343.76
331.875	326.66
332.34	339.46
332.805	390.36
333.271	497.11
333.736	659.11
334.201	591.86
334.666	443.96
335.131	499.56
335.596	398.26
336.061	419.06
336.526	426.31
336.991	376.31
337.456	402.71
337.921	317.51
338.386	263.71
338.851	238.26
339.316	221.16
339.781	219.71
340.246	219.36
340.711	222.86
341.175	227.86
341.64	236.46
342.105	238.91
342.569	252.21
343.034	266.41
343.499	280.51
343.963	275.96
344.428	266.71
344.893	271.91
345.357	272.51
345.822	266.41
346.286	274.96
346.751	280.96
347.215	283.16
347.679	284.06
348.144	310.21
348.608	306.01
349.073	320.26
349.537	354.41
350.001	347.71
350.465	325.11
350.93	319.16
351.394	314.41
351.858	316.91
352.322	330.56
352.786	327.86
353.25	322.36
353.715	325.16
354.179	346.01
354.643	366.96
355.107	373.31
355.571	386.36
356.035	392.81
356.498	381.36
356.962	413.21
357.426	401.06
357.89	366.36
358.354	346.61
358.818	344.26
359.281	356.41
359.745	367.11
360.209	360.71
360.673	368.21
361.136	365.51
361.6	369.61
362.064	389.76
362.527	396.51
362.991	404.11
363.454	399.96
363.918	405.51
364.381	399.16
364.845	387.31
365.308	385.36
365.772	385.96
366.235	395.56
366.698	416.06
367.162	486.36
367.625	547.26
368.088	450.76
368.552	412.46
369.015	412.76
369.478	445.06
369.941	447.06
370.404	459.96
370.867	484.41
371.331	495.46
371.794	499.21
372.257	553.86
372.72	588.11
373.183	553.51
373.646	564.21
374.109	561.31
374.572	644.51
375.035	759.61
375.497	580.11
375.96	470.31
376.423	449.96
376.886	450.86
377.349	464.91
377.811	467.11
378.274	477.21
378.737	472.76
379.199	494.96
379.662	501.06
380.125	533.81
380.587	590.31
381.05	628.01
381.512	621.71
381.975	609.86
382.437	607.76
382.9	603.21
383.362	604.76
383.825	642.26
384.287	802.11
384.75	890.66
385.212	791.51
385.674	652.51
386.136	602.36
386.599	591.66
387.061	630.51
387.523	645.06
387.985	651.26
388.447	669.06
388.91	747.86
389.372	901.66
389.834	842.81
390.296	700.81
390.758	710.51
391.22	733.86
391.682	894.76
392.144	1360.76
392.606	1273.16
393.068	761.51
393.529	702.26
393.991	677.36
394.453	667.41
394.915	695.31
395.377	842.86
395.838	1024.11
396.3	736.16
396.762	581.81
397.224	555.96
397.685	548.11
398.147	552.96
398.608	562.66
399.07	568.16
399.531	555.21
399.993	570.16
400.454	579.21
400.916	571.26
401.377	586.81
401.839	595.01
402.3	594.56
402.762	616.86
403.223	683.06
403.684	694.91
404.145	639.21
404.607	625.71
405.068	622.36
405.529	645.61
405.99	648.36
406.451	657.96
406.913	646.26
407.374	654.06
407.835	658.06
408.296	676.66
408.757	686.91
409.218	708.81
409.679	714.26
410.14	729.06
410.601	748.16
411.062	784.11
411.522	901.96
411.983	987.76
412.444	844.81
412.905	753.66
413.366	752.21
413.826	772.86
414.287	865.56
414.748	1021.91
415.208	1047.31
415.669	877.96
416.13	801.31
416.59	781.36
417.051	814.91
417.511	851.21
417.972	908.21
418.432	971.96
418.893	1076.36
419.353	1023.36
419.814	798.66
420.274	724.46
420.734	716.51
421.195	757.11
421.655	784.96
422.115	756.91
422.576	734.61
423.036	744.21
423.496	775.01
423.956	803.16
424.416	863.16
424.876	970.91
425.336	974.51
425.797	964.41
426.257	963.76
426.717	907.56
427.177	851.36
427.637	883.26
428.097	921.51
428.556	967.66
429.016	1048.46
429.476	1037.01
429.936	998.96
430.396	969.51
430.856	984.21
431.315	1010.06
431.775	1075.11
432.235	1140.66
432.694	1157.81
433.154	1096.11
433.614	1061.66
434.073	1032.41
434.533	939.61
434.993	907.56
435.452	919.16
435.912	897.36
436.371	890.81
436.83	889.16
437.29	901.31
437.749	855.21
438.209	841.86
438.668	858.76
439.127	867.86
439.587	850.96
440.046	812.11
440.505	832.51
440.964	824.11
441.424	855.91
441.883	870.96
442.342	825.61
442.801	795.81
443.26	815.21
443.719	807.91
444.178	801.91
444.637	813.51
445.096	811.76
445.555	836.26
446.014	831.46
446.473	797.41
446.932	805.81
447.391	820.81
447.849	839.26
448.308	827.81
448.767	842.76
449.226	867.41
449.685	867.61
450.143	906.81
450.602	909.56
451.061	877.11
451.519	879.36
451.978	902.36
452.436	931.01
452.895	884.36
453.353	861.31
453.812	875.81
454.27	862.56
454.729	841.51
455.187	843.61
455.646	855.86
456.104	859.06
456.562	849.31
457.021	848.66
457.479	801.46
457.937	833.26
458.395	854.21
458.854	848.96
459.312	834.46
459.77	849.56
460.228	859.91
460.686	872.66
461.144	870.11
461.602	854.21
462.06	861.71
462.518	883.56
462.976	881.81
463.434	890.61
463.892	899.16
464.35	918.16
464.808	925.91
465.266	935.01
465.724	941.06
466.181	950.86
466.639	958.91
467.097	989.41
467.555	1022.31
468.012	1007.21
468.47	1022.31
468.928	1053.41
469.385	1078.71
469.843	1086.76
470.3	1086.86
470.758	1119.66
471.215	1140.16
471.673	1159.86
472.13	1193.16
472.588	1217.36
473.045	1224.31
473.503	1246.41
473.96	1294.46
474.417	1312.51
474.875	1379.56
475.332	1421.01
475.789	1435.51
476.246	1484.16
476.704	1541.66
477.161	1579.81
477.618	1624.66
478.075	1728.61
478.532	1861.91
478.989	1996.96
479.446	2211.36
479.903	2328.16
480.36	2550.06
480.817	2718.81
481.274	2919.81
481.731	3190.61
482.188	3432.96
482.645	3698.76
483.102	3911.31
483.558	4192.46
484.015	4399.31
484.472	4399.36
484.929	4244.16
485.385	4072.71
485.842	3967.91
486.299	3768.71
486.755	3418.76
487.212	3064.66
487.668	2757.31
488.125	2560.31
488.582	2368.76
489.038	2265.56
489.494	2199.71
489.951	2133.51
490.407	2078.81
490.864	2035.56
491.32	2002.96
491.776	1969.81
492.233	1980.81
492.689	1948.01
493.145	1931.96
493.602	1910.46
494.058	1953.36
494.514	1975.16
494.97	1983.06
495.426	2000.76
495.882	2010.36
496.338	2017.06
496.794	2099.11
497.251	2106.76
497.707	2101.71
498.163	2107.06
498.618	2117.51
499.074	2132.56
499.53	2155.26
499.986	2200.71
500.442	2231.81
500.898	2242.56
501.354	2265.91
501.809	2273.76
502.265	2311.96
502.721	2419.86
503.177	2482.41
503.632	2358.76
504.088	2367.56
504.543	2578.71
504.999	2414.86
505.455	2150.16
505.91	2055.01
506.366	2029.96
506.821	2015.21
507.277	1997.81
507.732	2017.81
508.187	2020.61
508.643	2035.11
509.098	2028.21
509.553	2059.11
510.009	2091.16
510.464	2128.96
510.919	2137.51
511.375	2163.21
511.83	2197.16
512.285	2230.06
512.74	2287.96
513.195	2321.41
513.65	2357.61
514.105	2393.31
514.56	2398.96
515.015	2446.41
515.47	2481.81
515.925	2464.71
516.38	2443.36
516.835	2427.01
517.29	2427.61
517.745	2457.81
518.2	2411.81
518.655	2333.61
519.109	2305.11
519.564	2270.01
520.019	2276.06
520.474	2228.01
520.928	2225.01
521.383	2222.31
521.838	2225.71
522.292	2178.31
522.747	2155.71
523.201	2154.76
523.656	2125.76
524.11	2118.96
524.565	2116.21
525.019	2119.31
525.474	2139.46
525.928	2138.01
526.382	2106.56
526.837	2084.76
527.291	2104.16
527.745	2093.76
528.2	2081.56
528.654	2072.91
529.108	2073.31
529.562	2072.56
530.016	2071.56
530.47	2084.56
530.925	2073.16
531.379	2081.11
531.833	2115.01
532.287	2079.36
532.741	2085.01
533.195	2086.31
533.649	2092.11
534.103	2085.26
534.556	2072.81
535.01	2090.86
535.464	2072.96
535.918	2091.06
536.372	2103.21
536.826	2092.86
537.279	2076.96
537.733	2061.76
538.187	2084.21
538.64	2079.41
539.094	2107.11
539.548	2131.16
540.001	2136.06
540.455	2152.51
540.908	2148.76
541.362	2176.56
541.815	2203.86
542.269	2237.26
542.722	2226.56
543.175	2248.91
543.629	2256.51
544.082	2277.61
544.536	2304.11
544.989	2311.66
545.442	2325.41
545.895	2315.71
546.349	2317.76
546.802	2321.81
547.255	2326.01
547.708	2332.91
548.161	2368.51
548.614	2366.86
549.067	2366.51
549.52	2354.31
549.973	2331.81
550.426	2303.86
550.879	2298.26
551.332	2287.11
551.785	2320.21
552.238	2320.71
552.691	2332.21
553.144	2359.36
553.596	2402.76
554.049	2431.31
554.502	2483.71
554.955	2522.46
555.407	2552.16
555.86	2532.21
556.313	2506.46
556.765	2476.86
557.218	2447.41
557.67	2442.91
558.123	2426.11
558.576	2398.06
559.028	2400.66
559.48	2433.51
559.933	2409.06
560.385	2342.06
560.838	2261.16
561.29	2202.26
561.742	2205.91
562.195	2154.71
562.647	2129.06
563.099	2133.41
563.551	2111.66
564.004	2139.71
564.456	2118.91
564.908	2076.36
565.36	2037.81
565.812	2000.31
566.264	1983.46
566.716	1961.66
567.168	1919.16
567.62	1938.11
568.072	1911.26
568.524	1884.66
568.976	1872.26
569.428	1857.06
569.88	1857.86
570.332	1868.26
570.784	1867.21
571.235	1856.56
571.687	1871.96
572.139	1866.61
572.59	1891.96
573.042	1900.61
573.494	1902.16
573.945	1869.66
574.397	1828.81
574.849	1836.51
575.3	1832.06
575.752	1813.91
576.203	1796.16
576.655	1804.11
577.106	1778.16
577.557	1771.36
578.009	1755.86
578.46	1766.51
578.912	1753.36
579.363	1768.56
579.814	1757.61
580.265	1759.31
580.717	1771.61
581.168	1759.96
581.619	1768.56
582.07	1793.76
582.521	1783.26
582.972	1773.01
583.423	1803.16
583.875	1841.11
584.326	1928.31
584.777	2110.66
585.227	2320.41
585.678	2474.66
586.129	2517.81
586.58	2561.81
587.031	2587.56
587.482	2744.11
587.933	3213.76
588.384	2952.01
588.834	2433.41
589.285	2051.11
589.736	1997.61
590.186	2012.06
590.637	1999.26
591.088	1937.26
591.538	1915.86
591.989	1912.41
592.439	1894.86
592.89	1890.26
593.34	1883.36
593.791	1901.11
594.241	1897.41
594.692	1924.91
595.142	1909.61
595.593	1880.81
596.043	1885.61
596.493	1904.81
596.943	1955.16
597.394	1935.26
597.844	1902.51
598.294	1948.31
598.744	2007.46
599.195	2087.41
599.645	2213.26
600.095	2317.11
600.545	2431.21
600.995	2533.86
601.445	2622.76
601.895	2765.31
602.345	2832.01
602.795	2787.46
603.245	2664.51
603.695	2491.26
604.145	2366.16
604.594	2252.46
605.044	2143.41
605.494	2009.26
605.944	1904.31
606.393	1873.91
606.843	1854.61
607.293	1844.91
607.743	1840.36
608.192	1851.86
608.642	1861.56
609.091	1864.21
609.541	1870.16
609.99	1855.26
610.44	1822.16
610.889	1797.91
611.339	1785.66
611.788	1767.66
612.238	1786.26
612.687	1810.06
613.136	1826.06
613.586	1854.81
614.035	1857.56
614.484	1885.51
614.933	1901.46
615.383	1851.51
615.832	1790.86
616.281	1750.51
616.73	1694.36
617.179	1657.76
617.628	1621.11
618.077	1583.61
618.526	1556.71
618.975	1558.51
619.424	1529.61
619.873	1535.16
620.322	1522.66
620.771	1523.11
621.22	1494.86
621.669	1462.01
622.118	1461.96
622.567	1437.96
623.015	1416.86
623.464	1423.06
623.913	1393.21
624.361	1402.26
624.81	1408.21
625.259	1384.36
625.707	1367.46
626.156	1377.26
626.604	1387.56
627.053	1388.01
627.501	1400.66
627.95	1409.06
628.398	1425.91
628.847	1408.41
629.295	1414.66
629.744	1431.36
630.192	1463.41
630.64	1570.31
631.089	1739.26
631.537	1813.01
631.985	1809.81
632.433	1885.11
632.881	1886.06
633.33	2247.51
633.778	2467.56
634.226	1739.91
634.674	1606.41
635.122	1590.46
635.57	1617.41
636.018	1887.51
636.466	1532.11
636.914	1374.36
637.362	1356.16
637.81	1373.71
638.258	1421.66
638.705	1435.11
639.153	1477.01
639.601	1485.86
640.049	1514.21
640.497	1543.66
640.944	1578.61
641.392	1528.56
641.84	1430.36
642.287	1382.26
642.735	1354.56
643.182	1343.66
643.63	1347.11
644.078	1350.71
644.525	1371.06
644.973	1403.01
645.42	1423.31
645.867	1437.36
646.315	1468.41
646.762	1522.46
647.21	1563.01
647.657	1634.51
648.104	1700.96
648.551	1766.76
648.999	1910.86
649.446	2106.91
649.893	2356.76
650.34	2779.26
650.787	3442.86
651.234	4483.71
651.682	6270.11
652.129	8974.96
652.576	12848.16
653.023	15535.41
653.47	15538.61
653.917	15538.66
654.363	15538.56
654.81	15535.56
655.257	15536.21
655.704	15495.46
656.151	9566.31
656.598	6222.61
657.044	4410.11
657.491	3459.41
657.938	2806.51
658.385	2381.76
658.831	2096.96
659.278	1883.66
659.724	1725.76
660.171	1598.86
660.618	1483.71
661.064	1396.56
661.511	1357.26
661.957	1311.06
662.404	1278.36
662.85	1268.21
663.296	1251.31
663.743	1226.66
664.189	1211.56
664.635	1200.16
665.082	1177.61
665.528	1159.51
665.974	1136.51
666.42	1138.46
666.867	1159.91
667.313	1158.06
667.759	1216.36
668.205	1210.91
668.651	1233.06
669.097	1184.66
669.543	1288.76
669.989	1213.86
670.435	1075.76
670.881	1058.11
671.327	1098.81
671.773	1183.71
672.219	1271.51
672.665	1346.61
673.11	1386.61
673.556	1400.11
674.002	1436.01
674.448	1448.11
674.893	1235.71
675.339	1078.21
675.785	993.41
676.23	951.71
676.676	907.41
677.122	890.91
677.567	868.76
678.013	840.21
678.458	834.96
678.904	834.76
679.349	818.31
679.794	821.26
680.24	825.66
680.685	811.86
681.131	809.71
681.576	815.71
682.021	820.31
682.466	819.36
682.912	834.96
683.357	876.96
683.802	956.01
684.247	1034.86
684.692	1109.61
685.137	1145.01
685.583	1165.76
686.028	1227.71
686.473	1160.61
686.918	1007.21
687.363	919.66
687.807	873.31
688.252	831.76
688.697	805.41
689.142	789.86
689.587	782.41
690.032	799.81
690.477	828.11
690.921	880.16
691.366	918.96
691.811	955.96
692.255	1039.56
692.7	1265.76
693.145	1834.01
693.589	2803.71
694.034	3313.76
694.478	3506.46
694.923	3164.71
695.367	4483.76
695.812	2743.01
696.256	1169.66
696.701	856.11
697.145	797.51
697.59	772.36
698.034	767.31
698.478	762.56
698.922	765.21
699.367	778.61
699.811	824.21
700.255	894.36
700.699	969.06
701.143	1069.16
701.588	1112.86
702.032	1165.21
702.476	1185.41
702.92	1265.56
703.364	1667.91
703.808	2562.71
704.252	3184.11
704.696	3329.61
705.14	3117.21
705.584	4243.11
706.027	2375.96
706.471	1198.96
706.915	894.46
707.359	802.71
707.803	756.71
708.246	730.16
708.69	727.36
709.134	722.41
709.577	718.51
710.021	722.41
710.465	728.21
710.908	723.76
711.352	749.21
711.795	829.96
712.239	892.66
712.682	912.86
713.126	898.56
713.569	1000.66
714.012	830.26
714.456	734.56
714.899	685.41
715.342	640.76
715.786	613.51
716.229	596.31
716.672	582.21
717.115	587.91
717.558	589.91
718.002	612.51
718.445	642.66
718.888	672.61
719.331	685.36
719.774	698.06
720.217	679.71
720.66	648.76
721.103	603.81
721.546	576.61
721.989	563.96
722.432	551.06
722.874	553.31
723.317	564.41
723.76	616.86
724.203	755.16
724.645	1008.41
725.088	1179.96
725.531	1142.76
725.974	1255.46
726.416	1126.76
726.859	699.16
727.301	572.46
727.744	553.71
728.187	547.26
728.629	565.86
729.071	590.61
729.514	611.06
729.956	632.96
730.399	642.36
730.841	644.16
731.283	630.56
731.726	610.76
732.168	620.26
732.61	662.26
733.053	707.31
733.495	777.91
733.937	867.16
734.379	1029.71
734.821	1317.16
735.263	2107.56
735.705	3784.96
736.148	5520.11
736.59	5440.76
737.032	5830.86
737.474	4816.06
737.916	1855.16
738.357	980.71
738.799	758.56
739.241	705.91
739.683	712.16
740.125	713.71
740.567	711.51
741.008	748.56
741.45	788.56
741.892	822.56
742.334	807.11
742.775	792.51
743.217	760.36
