Data from MSPlasma+Separation6_Subt14_10-15-53-037.txt Node
Date: Fri Jul 21 10:15:53 EDT 2017
User: Ender
Spectrometer: HR+D1039
Trigger mode: 0
Integration Time (sec): 2.510000E-3
Scans to average: 20
Electric dark correction enabled: true
Nonlinearity correction enabled: false
Boxcar width: 0
XAxis mode: Wavelengths
Number of Pixels in Spectrum: 2048
>>>>>Begin Spectral Data<<<<<
187.836	-0.56
188.309	-0.56
188.782	-0.56
189.255	0.14
189.728	2.64
190.201	-0.31
190.674	-1.16
191.147	-3.96
191.619	-3.01
192.092	1.44
192.565	1.54
193.038	3.84
193.511	4.34
193.984	2.59
194.456	0.99
194.929	-1.26
195.402	-8.21
195.874	0.94
196.347	0.94
196.82	3.44
197.292	-1.86
197.765	-2.51
198.237	-1.11
198.71	-5.66
199.182	1.99
199.655	2.44
200.127	2.79
200.6	-2.01
201.072	2.49
201.544	-3.36
202.017	-1.16
202.489	3.14
202.961	-4.06
203.433	-5.11
203.906	1.94
204.378	5.09
204.85	-1.06
205.322	1.54
205.794	3.69
206.266	-0.71
206.739	3.94
207.211	-5.11
207.683	-0.61
208.155	1.14
208.627	3.64
209.099	5.74
209.57	-0.86
210.042	0.39
210.514	3.49
210.986	4.64
211.458	6.49
211.93	2.99
212.402	0.29
212.873	-4.51
213.345	-5.66
213.817	3.64
214.288	-1.91
214.76	-3.91
215.232	-0.31
215.703	-1.26
216.175	2.04
216.646	3.34
217.118	-0.21
217.589	-2.36
218.061	-2.06
218.532	-5.61
219.004	2.89
219.475	4.99
219.946	10.04
220.418	15.44
220.889	6.19
221.36	6.44
221.832	2.44
222.303	4.99
222.774	4.74
223.245	-4.61
223.717	0.19
224.188	2.04
224.659	-2.51
225.13	-0.46
225.601	3.89
226.072	1.19
226.543	7.54
227.014	0.34
227.485	1.94
227.956	1.89
228.427	9.59
228.898	-0.71
229.369	4.89
229.839	4.79
230.31	10.09
230.781	8.99
231.252	8.29
231.722	10.34
232.193	13.44
232.664	15.14
233.135	20.09
233.605	22.54
234.076	21.89
234.546	18.84
235.017	16.74
235.487	14.59
235.958	15.64
236.428	28.29
236.899	41.89
237.369	45.09
237.84	34.74
238.31	43.44
238.78	37.59
239.251	42.69
239.721	40.19
240.191	28.99
240.662	18.54
241.132	14.34
241.602	21.24
242.072	26.34
242.542	33.49
243.013	19.89
243.483	19.94
243.953	16.14
244.423	14.99
244.893	16.89
245.363	24.14
245.833	16.19
246.303	21.94
246.773	33.19
247.243	29.84
247.712	34.09
248.182	45.14
248.652	45.04
249.122	68.84
249.592	124.19
250.061	192.04
250.531	311.94
251.001	231.49
251.471	191.39
251.94	148.09
252.41	80.44
252.879	59.69
253.349	45.14
253.818	35.09
254.288	29.74
254.757	32.54
255.227	40.74
255.696	31.59
256.166	33.39
256.635	30.09
257.105	40.64
257.574	54.14
258.043	55.09
258.513	102.09
258.982	125.74
259.451	91.94
259.92	85.64
260.389	79.54
260.859	60.04
261.328	71.24
261.797	102.14
262.266	88.24
262.735	46.89
263.204	25.19
263.673	23.44
264.142	19.74
264.611	24.19
265.08	24.24
265.549	24.59
266.018	25.89
266.487	22.59
266.955	21.29
267.424	28.24
267.893	30.94
268.362	30.09
268.83	22.79
269.299	30.44
269.768	34.59
270.236	32.99
270.705	43.54
271.174	39.44
271.642	41.74
272.111	51.04
272.579	84.19
273.048	130.84
273.516	169.74
273.985	165.09
274.453	130.24
274.922	75.84
275.39	49.64
275.858	42.59
276.327	36.74
276.795	43.64
277.263	46.09
277.731	62.49
278.2	116.89
278.668	149.14
279.136	117.09
279.604	77.99
280.072	42.84
280.54	39.64
281.008	46.74
281.477	43.04
281.945	42.54
282.413	44.49
282.881	44.44
283.348	41.89
283.816	44.09
284.284	51.04
284.752	48.44
285.22	53.44
285.688	52.19
286.156	92.54
286.623	239.09
287.091	469.94
287.559	249.19
288.026	102.39
288.494	61.54
288.962	52.89
289.429	48.49
289.897	46.74
290.364	43.69
290.832	42.79
291.3	46.49
291.767	47.19
292.234	47.99
292.702	48.44
293.169	54.04
293.637	62.09
294.104	52.84
294.571	54.24
295.039	55.24
295.506	50.39
295.973	56.59
296.44	48.34
296.908	61.59
297.375	69.24
297.842	67.89
298.309	60.89
298.776	54.74
299.243	58.94
299.71	55.29
300.177	61.64
300.644	61.29
301.111	68.89
301.578	64.44
302.045	57.54
302.512	58.64
302.979	60.39
303.446	61.84
303.913	64.49
304.379	72.39
304.846	83.39
305.313	87.89
305.78	103.89
306.246	122.19
306.713	133.34
307.18	116.29
307.646	127.34
308.113	102.54
308.579	90.94
309.046	86.04
309.512	89.24
309.979	85.44
310.445	71.54
310.912	80.59
311.378	80.54
311.845	76.49
312.311	73.54
312.777	77.89
313.244	82.84
313.71	83.89
314.176	96.44
314.642	102.99
315.109	121.89
315.575	106.29
316.041	107.99
316.507	98.29
316.973	112.74
317.439	105.24
317.905	115.49
318.371	118.59
318.837	112.04
319.303	109.54
319.769	103.79
320.235	116.79
320.701	134.04
321.167	141.49
321.633	170.19
322.099	230.84
322.564	314.19
323.03	245.69
323.496	171.89
323.962	164.29
324.427	154.99
324.893	134.29
325.359	134.84
325.824	117.34
326.29	124.04
326.755	122.34
327.221	123.49
327.686	126.09
328.152	116.19
328.617	110.64
329.083	109.94
329.548	121.94
330.014	121.99
330.479	136.29
330.944	156.44
331.41	180.59
331.875	170.19
332.34	170.34
332.805	199.89
333.271	249.04
333.736	336.94
334.201	299.79
334.666	231.34
335.131	253.24
335.596	205.89
336.061	211.39
336.526	217.19
336.991	190.39
337.456	201.39
337.921	165.79
338.386	132.94
338.851	128.34
339.316	117.24
339.781	115.19
340.246	116.04
340.711	119.19
341.175	116.94
341.64	120.69
342.105	122.09
342.569	135.39
343.034	137.99
343.499	139.94
343.963	141.29
344.428	140.24
344.893	142.34
345.357	146.84
345.822	144.59
346.286	143.89
346.751	147.84
347.215	147.29
347.679	157.39
348.144	167.49
348.608	160.09
349.073	168.34
349.537	183.14
350.001	180.69
350.465	167.49
350.93	163.19
351.394	163.04
351.858	164.34
352.322	175.64
352.786	171.14
353.25	164.39
353.715	165.39
354.179	183.64
354.643	183.84
355.107	187.94
355.571	196.39
356.035	201.79
356.498	198.54
356.962	208.64
357.426	206.69
357.89	185.69
358.354	181.34
358.818	177.79
359.281	184.19
359.745	187.74
360.209	185.29
360.673	183.64
361.136	188.19
361.6	185.79
362.064	202.74
362.527	206.44
362.991	207.74
363.454	204.69
363.918	208.44
364.381	206.19
364.845	202.74
365.308	196.14
365.772	195.64
366.235	202.89
366.698	209.49
367.162	246.64
367.625	274.09
368.088	229.19
368.552	208.49
369.015	212.34
369.478	227.54
369.941	231.29
370.404	227.04
370.867	247.94
371.331	249.89
371.794	249.94
372.257	277.94
372.72	296.94
373.183	286.24
373.646	280.54
374.109	283.49
374.572	326.34
375.035	384.84
375.497	297.44
375.96	244.74
376.423	231.19
376.886	227.04
377.349	235.39
377.811	238.04
378.274	244.29
378.737	244.59
379.199	243.09
379.662	253.29
380.125	270.69
380.587	292.69
381.05	312.94
381.512	313.24
381.975	303.09
382.437	304.39
382.9	304.49
383.362	301.84
383.825	329.74
384.287	409.29
384.75	452.94
385.212	399.79
385.674	329.79
386.136	303.89
386.599	300.29
387.061	308.39
387.523	323.34
387.985	327.54
388.447	341.59
388.91	381.69
389.372	449.99
389.834	430.44
390.296	356.74
390.758	364.64
391.22	376.24
391.682	451.94
392.144	699.24
392.606	657.49
393.068	393.39
393.529	354.24
393.991	354.54
394.453	343.39
394.915	351.49
395.377	433.29
395.838	530.14
396.3	382.64
396.762	301.09
397.224	287.89
397.685	281.94
398.147	284.84
398.608	285.44
399.07	287.84
399.531	283.49
399.993	291.04
400.454	292.09
400.916	293.34
401.377	299.99
401.839	303.09
402.3	301.24
402.762	318.19
403.223	353.19
403.684	358.19
404.145	331.09
404.607	320.39
405.068	321.34
405.529	322.44
405.99	330.74
406.451	340.44
406.913	332.64
407.374	339.29
407.835	336.99
408.296	347.64
408.757	354.09
409.218	360.64
409.679	367.64
410.14	367.44
410.601	384.94
411.062	399.44
411.522	463.49
411.983	501.14
412.444	437.79
412.905	381.09
413.366	380.24
413.826	397.74
414.287	440.49
414.748	516.09
415.208	532.59
415.669	444.34
416.13	411.14
416.59	398.94
417.051	412.74
417.511	431.69
417.972	459.49
418.432	497.69
418.893	545.94
419.353	522.34
419.814	408.84
420.274	362.89
420.734	358.69
421.195	384.69
421.655	398.04
422.115	388.79
422.576	375.89
423.036	372.59
423.496	393.74
423.956	412.59
424.416	445.34
424.876	493.29
425.336	493.14
425.797	490.24
426.257	491.79
426.717	459.44
427.177	434.59
427.637	441.19
428.097	471.79
428.556	492.59
429.016	525.39
429.476	527.24
429.936	511.14
430.396	505.04
430.856	512.04
431.315	517.89
431.775	562.99
432.235	594.84
432.694	612.99
433.154	569.34
433.614	557.19
434.073	541.34
434.533	479.94
434.993	463.04
435.452	470.24
435.912	457.34
436.371	453.44
436.83	458.99
437.29	457.24
437.749	434.24
438.209	433.59
438.668	431.09
439.127	433.84
439.587	429.79
440.046	411.94
440.505	417.59
440.964	420.49
441.424	434.69
441.883	436.09
442.342	421.89
442.801	402.24
443.26	411.74
443.719	409.34
444.178	402.79
444.637	407.39
445.096	407.39
445.555	418.29
446.014	416.24
446.473	405.89
446.932	403.54
447.391	406.84
447.849	419.54
448.308	414.44
448.767	418.19
449.226	428.84
449.685	434.74
450.143	446.64
450.602	445.94
451.061	434.24
451.519	437.29
451.978	443.54
452.436	461.94
452.895	443.34
453.353	434.39
453.812	437.09
454.27	425.59
454.729	412.74
455.187	422.14
455.646	423.79
456.104	423.79
456.562	426.24
457.021	427.14
457.479	404.84
457.937	422.54
458.395	428.24
458.854	426.89
459.312	423.79
459.77	423.39
460.228	434.94
460.686	432.54
461.144	431.59
461.602	425.99
462.06	434.19
462.518	435.74
462.976	437.24
463.434	445.34
463.892	449.69
464.35	456.19
464.808	461.64
465.266	466.24
465.724	478.79
466.181	468.84
466.639	465.89
467.097	486.89
467.555	507.44
468.012	499.84
468.47	506.04
468.928	528.09
469.385	538.59
469.843	538.74
470.3	533.74
470.758	558.64
471.215	569.04
471.673	573.84
472.13	598.59
472.588	610.54
473.045	612.39
473.503	617.59
473.96	643.44
474.417	658.64
474.875	690.84
475.332	704.89
475.789	720.64
476.246	745.19
476.704	772.34
477.161	790.99
477.618	814.59
478.075	867.14
478.532	938.24
478.989	1009.74
479.446	1118.59
479.903	1185.59
480.36	1292.69
480.817	1383.74
481.274	1481.99
481.731	1626.99
482.188	1741.79
482.645	1877.64
483.102	2007.64
483.558	2163.14
484.015	2269.79
484.472	2277.69
484.929	2211.74
485.385	2105.99
485.842	2057.29
486.299	1957.94
486.755	1766.29
487.212	1581.49
487.668	1410.39
488.125	1305.74
488.582	1202.19
489.038	1150.14
489.494	1109.64
489.951	1066.24
490.407	1040.34
490.864	1022.94
491.32	992.84
491.776	981.14
492.233	984.84
492.689	968.29
493.145	950.04
493.602	938.44
494.058	953.89
494.514	969.29
494.97	975.39
495.426	978.19
495.882	977.29
496.338	976.59
496.794	1007.64
497.251	1019.49
497.707	1015.09
498.163	1016.24
498.618	1019.64
499.074	1031.29
499.53	1044.19
499.986	1061.64
500.442	1076.09
500.898	1079.59
501.354	1097.24
501.809	1104.39
502.265	1115.19
502.721	1164.64
503.177	1201.89
503.632	1144.69
504.088	1153.64
504.543	1256.24
504.999	1184.29
505.455	1053.19
505.91	1004.29
506.366	983.09
506.821	994.24
507.277	976.34
507.732	985.39
508.187	986.14
508.643	994.74
509.098	990.04
509.553	997.69
510.009	1014.79
510.464	1033.44
510.919	1040.59
511.375	1055.89
511.83	1073.74
512.285	1091.14
512.74	1103.14
513.195	1120.59
513.65	1147.54
514.105	1163.69
514.56	1155.64
515.015	1182.04
515.47	1199.89
515.925	1191.94
516.38	1182.29
516.835	1170.64
517.29	1179.29
517.745	1183.29
518.2	1170.84
518.655	1135.29
519.109	1120.39
519.564	1101.04
520.019	1104.04
520.474	1079.14
520.928	1073.49
521.383	1076.84
521.838	1064.39
522.292	1054.29
522.747	1051.44
523.201	1052.64
523.656	1029.64
524.11	1034.24
524.565	1029.84
525.019	1031.99
525.474	1035.24
525.928	1025.99
526.382	1017.64
526.837	1015.84
527.291	1015.29
527.745	1006.84
528.2	1010.49
528.654	996.14
529.108	1008.29
529.562	1006.89
530.016	1010.69
530.47	1003.19
530.925	1004.09
531.379	1006.64
531.833	1014.94
532.287	1021.74
532.741	1001.99
533.195	1009.44
533.649	998.94
534.103	1013.84
534.556	994.94
535.01	1010.29
535.464	1011.69
535.918	1010.24
536.372	1018.44
536.826	1012.79
537.279	999.34
537.733	1002.89
538.187	1005.74
538.64	1004.59
539.094	1021.79
539.548	1029.94
540.001	1027.79
540.455	1026.49
540.908	1038.94
541.362	1047.74
541.815	1058.39
542.269	1092.74
542.722	1076.29
543.175	1083.89
543.629	1097.44
544.082	1099.34
544.536	1112.64
544.989	1114.99
545.442	1117.94
545.895	1116.19
546.349	1115.09
546.802	1127.54
547.255	1117.69
547.708	1129.74
548.161	1137.49
548.614	1133.24
549.067	1138.69
549.52	1125.39
549.973	1118.34
550.426	1121.24
550.879	1108.89
551.332	1113.14
551.785	1114.09
552.238	1116.69
552.691	1116.24
553.144	1138.29
553.596	1158.59
554.049	1176.99
554.502	1195.29
554.955	1199.74
555.407	1230.19
555.86	1211.74
556.313	1203.69
556.765	1195.14
557.218	1180.34
557.67	1185.39
558.123	1172.44
558.576	1162.39
559.028	1151.34
559.48	1181.39
559.933	1167.39
560.385	1132.09
560.838	1093.84
561.29	1058.49
561.742	1055.89
562.195	1034.04
562.647	1027.09
563.099	1025.19
563.551	1023.09
564.004	1032.59
564.456	1024.14
564.908	998.59
565.36	984.24
565.812	968.74
566.264	960.74
566.716	940.49
567.168	931.49
567.62	934.94
568.072	928.54
568.524	919.24
568.976	917.44
569.428	900.89
569.88	901.69
570.332	904.49
570.784	906.14
571.235	898.54
571.687	909.34
572.139	906.09
572.59	917.24
573.042	919.09
573.494	919.79
573.945	906.89
574.397	887.34
574.849	882.79
575.3	889.74
575.752	874.74
576.203	868.14
576.655	877.54
577.106	861.79
577.557	856.29
578.009	849.34
578.46	858.69
578.912	846.59
579.363	847.74
579.814	843.64
580.265	852.09
580.717	852.69
581.168	844.99
581.619	856.19
582.07	862.74
582.521	856.84
582.972	866.74
583.423	870.34
583.875	882.29
584.326	920.49
584.777	995.84
585.227	1073.74
585.678	1137.34
586.129	1163.79
586.58	1181.39
587.031	1197.34
587.482	1263.64
587.933	1462.99
588.384	1367.54
588.834	1146.64
589.285	988.79
589.736	971.59
590.186	962.84
590.637	960.54
591.088	935.24
591.538	920.64
591.989	929.49
592.439	908.54
592.89	903.99
593.34	908.74
593.791	908.64
594.241	918.34
594.692	933.24
595.142	918.14
595.593	903.94
596.043	902.54
596.493	918.29
596.943	937.29
597.394	935.24
597.844	923.64
598.294	921.89
598.744	966.04
599.195	997.74
599.645	1055.74
600.095	1110.49
600.545	1156.54
600.995	1205.49
601.445	1250.24
601.895	1310.94
602.345	1336.59
602.795	1331.19
603.245	1279.24
603.695	1200.54
604.145	1141.04
604.594	1089.74
605.044	1028.99
605.494	971.59
605.944	922.29
606.393	905.29
606.843	892.24
607.293	895.44
607.743	878.89
608.192	895.89
608.642	897.19
609.091	903.44
609.541	898.54
609.99	893.99
610.44	874.74
610.889	871.29
611.339	854.04
611.788	845.24
612.238	854.49
612.687	870.84
613.136	877.79
613.586	882.59
614.035	890.54
614.484	896.34
614.933	898.44
615.383	882.24
615.832	854.54
616.281	841.04
616.73	816.14
617.179	800.34
617.628	781.34
618.077	770.44
618.526	756.79
618.975	755.39
619.424	736.79
619.873	741.54
620.322	738.69
620.771	732.94
621.22	722.99
621.669	709.94
622.118	698.79
622.567	702.19
623.015	685.89
623.464	691.34
623.913	679.04
624.361	676.54
624.81	671.24
625.259	672.34
625.707	663.49
626.156	669.39
626.604	678.39
627.053	681.34
627.501	672.94
627.95	684.99
628.398	692.29
628.847	686.44
629.295	689.14
629.744	697.79
630.192	707.69
630.64	749.84
631.089	827.19
631.537	863.69
631.985	866.69
632.433	902.59
632.881	900.59
633.33	1080.09
633.778	1171.89
634.226	848.09
634.674	778.24
635.122	771.44
635.57	785.34
636.018	908.14
636.466	747.34
636.914	669.19
637.362	665.44
637.81	672.94
638.258	696.54
638.705	694.94
639.153	715.49
639.601	722.89
640.049	728.54
640.497	752.09
640.944	777.44
641.392	739.74
641.84	702.34
642.287	674.44
642.735	666.39
643.182	662.09
643.63	670.04
644.078	664.44
644.525	677.24
644.973	691.34
645.42	705.19
645.867	714.69
646.315	734.24
646.762	763.29
647.21	775.34
647.657	821.84
648.104	863.64
648.551	888.64
648.999	970.14
649.446	1067.74
649.893	1210.59
650.34	1414.34
650.787	1744.74
651.234	2286.09
651.682	3163.24
652.129	4550.04
652.576	6586.29
653.023	8792.14
653.47	10290.84
653.917	11259.94
654.363	11748.49
654.81	12526.94
655.257	12666.49
655.704	8647.94
656.151	5064.89
656.598	3281.74
657.044	2322.39
657.491	1812.09
657.938	1463.74
658.385	1227.59
658.831	1082.19
659.278	960.19
659.724	878.94
660.171	817.04
660.618	750.79
661.064	705.84
661.511	680.79
661.957	657.99
662.404	645.19
662.85	640.49
663.296	627.79
663.743	610.69
664.189	597.64
664.635	598.74
665.082	582.44
665.528	578.29
665.974	562.19
666.42	559.54
666.867	564.99
667.313	557.94
667.759	584.54
668.205	586.04
668.651	592.29
669.097	574.09
669.543	615.14
669.989	590.94
670.435	524.79
670.881	519.79
671.327	543.84
671.773	580.34
672.219	615.44
672.665	656.29
673.11	679.59
673.556	682.44
674.002	698.89
674.448	711.29
674.893	600.74
675.339	528.44
675.785	487.89
676.23	467.89
676.676	446.24
677.122	434.59
677.567	425.84
678.013	415.59
678.458	414.69
678.904	406.54
679.349	405.99
679.794	404.19
680.24	406.04
680.685	395.09
681.131	396.29
681.576	399.64
682.021	400.14
682.466	407.79
682.912	411.34
683.357	433.99
683.802	466.19
684.247	505.24
684.692	537.29
685.137	560.79
685.583	560.99
686.028	599.44
686.473	570.24
686.918	490.84
687.363	461.29
687.807	428.14
688.252	414.79
688.697	398.14
689.142	387.74
689.587	391.19
690.032	399.39
690.477	411.54
690.921	427.49
691.366	451.24
691.811	465.59
692.255	504.24
692.7	614.34
693.145	877.64
693.589	1314.29
694.034	1544.84
694.478	1640.69
694.923	1513.94
695.367	2125.54
695.812	1323.94
696.256	568.24
696.701	420.49
697.145	396.39
697.59	380.99
698.034	373.44
698.478	373.54
698.922	374.84
699.367	387.99
699.811	402.64
700.255	433.69
700.699	470.09
701.143	510.29
701.588	539.54
702.032	560.14
702.476	574.49
702.92	618.94
703.364	803.79
703.808	1202.79
704.252	1483.19
704.696	1561.59
705.14	1494.94
705.584	2018.79
706.027	1158.14
706.471	586.64
706.915	438.54
707.359	391.74
707.803	374.34
708.246	356.04
708.69	356.64
709.134	348.09
709.577	352.49
710.021	357.99
710.465	357.24
710.908	354.79
711.352	365.19
711.795	401.54
712.239	428.84
712.682	441.49
713.126	437.39
713.569	487.69
714.012	410.24
714.456	354.54
714.899	330.39
715.342	311.64
715.786	303.39
716.229	295.84
716.672	286.79
717.115	289.19
717.558	285.34
718.002	295.24
718.445	313.69
718.888	329.09
719.331	339.34
719.774	337.09
720.217	333.04
720.66	310.39
721.103	300.14
721.546	279.99
721.989	275.09
722.432	269.69
722.874	269.24
723.317	276.39
723.76	300.14
724.203	367.69
724.645	482.64
725.088	561.99
725.531	551.34
725.974	603.89
726.416	538.94
726.859	344.54
727.301	282.94
727.744	270.14
728.187	273.49
728.629	275.69
729.071	291.49
729.514	299.29
729.956	314.59
730.399	318.49
730.841	314.74
731.283	304.04
731.726	297.84
732.168	305.29
732.61	323.84
733.053	348.09
733.495	381.49
733.937	426.89
734.379	500.94
734.821	635.49
735.263	999.14
735.705	1746.04
736.148	2529.49
736.59	2518.74
737.032	2741.04
737.474	2285.94
737.916	914.64
738.357	481.99
738.799	369.39
739.241	346.89
739.683	347.39
740.125	353.24
740.567	353.44
741.008	373.54
741.45	383.39
741.892	393.14
742.334	400.79
742.775	395.79
743.217	372.44
743.658	329.99
744.1	324.79
744.542	368.09
744.983	380.79
745.425	393.64
745.866	389.89
746.307	350.09
746.749	380.19
747.19	546.39
747.632	1062.54
748.073	1907.64
748.514	2592.84
748.956	3460.64
749.397	4045.99
749.838	2787.04
750.279	2665.54
750.72	1414.99
751.162	607.54
751.603	352.09
752.044	281.64
752.485	256.94
752.926	238.14
753.367	227.44
