Data from MSPlasma+Separation6_Subt14_10-14-54-614.txt Node
Date: Fri Jul 21 10:14:54 EDT 2017
User: Ender
Spectrometer: HR+D1039
Trigger mode: 0
Integration Time (sec): 6.430000E-3
Scans to average: 20
Electric dark correction enabled: true
Nonlinearity correction enabled: false
Boxcar width: 0
XAxis mode: Wavelengths
Number of Pixels in Spectrum: 2048
>>>>>Begin Spectral Data<<<<<
187.836	-0.61
188.309	-0.61
188.782	-0.61
189.255	2.64
189.728	4.39
190.201	-2.11
190.674	1.14
191.147	-1.46
191.619	0.59
192.092	-0.96
192.565	0.69
193.038	3.39
193.511	-1.36
193.984	-3.11
194.456	-0.16
194.929	-2.16
195.402	-0.91
195.874	0.04
196.347	2.79
196.82	-1.56
197.292	-0.26
197.765	-3.81
198.237	1.19
198.71	-0.46
199.182	5.59
199.655	6.79
200.127	4.49
200.6	1.64
201.072	8.14
201.544	3.94
202.017	4.59
202.489	4.54
202.961	-0.31
203.433	3.54
203.906	1.69
204.378	0.49
204.85	5.64
205.322	0.39
205.794	8.79
206.266	4.74
206.739	6.74
207.211	1.79
207.683	4.79
208.155	5.54
208.627	5.04
209.099	9.79
209.57	2.54
210.042	4.24
210.514	8.64
210.986	16.29
211.458	25.39
211.93	15.04
212.402	5.29
212.873	4.04
213.345	-1.26
213.817	0.89
214.288	-1.86
214.76	9.69
215.232	6.64
215.703	2.34
216.175	2.89
216.646	6.44
217.118	7.39
217.589	-0.26
218.061	3.09
218.532	4.59
219.004	10.99
219.475	14.99
219.946	31.39
220.418	39.34
220.889	24.59
221.36	12.49
221.832	8.69
222.303	4.74
222.774	5.24
223.245	4.84
223.717	1.89
224.188	8.59
224.659	1.64
225.13	2.99
225.601	7.74
226.072	7.74
226.543	12.04
227.014	5.59
227.485	9.64
227.956	13.89
228.427	16.44
228.898	19.39
229.369	19.04
229.839	12.24
230.31	11.89
230.781	17.94
231.252	21.74
231.722	28.09
232.193	36.99
232.664	39.74
233.135	59.49
233.605	65.94
234.076	50.44
234.546	41.84
235.017	53.44
235.487	47.14
235.958	49.24
236.428	61.29
236.899	112.04
237.369	119.64
237.84	92.84
238.31	111.94
238.78	110.44
239.251	113.84
239.721	111.44
240.191	93.19
240.662	47.69
241.132	42.99
241.602	54.59
242.072	72.64
242.542	88.84
243.013	63.19
243.483	58.39
243.953	45.04
244.423	47.49
244.893	52.84
245.363	59.34
245.833	58.29
246.303	61.64
246.773	83.74
247.243	82.44
247.712	93.14
248.182	113.14
248.652	118.99
249.122	177.39
249.592	334.94
250.061	500.34
250.531	792.59
251.001	609.29
251.471	507.49
251.94	383.24
252.41	207.89
252.879	144.09
253.349	106.09
253.818	88.74
254.288	75.09
254.757	77.39
255.227	106.49
255.696	83.04
256.166	72.19
256.635	79.49
257.105	92.99
257.574	133.49
258.043	136.74
258.513	239.34
258.982	303.44
259.451	206.59
259.92	207.74
260.389	195.99
260.859	137.74
261.328	166.59
261.797	248.24
262.266	212.69
262.735	104.09
263.204	61.49
263.673	54.59
264.142	47.04
264.611	55.54
265.08	55.44
265.549	64.84
266.018	55.59
266.487	54.09
266.955	49.89
267.424	64.79
267.893	61.49
268.362	64.39
268.83	59.14
269.299	61.79
269.768	72.74
270.236	87.34
270.705	86.79
271.174	87.79
271.642	98.59
272.111	116.24
272.579	184.34
273.048	290.39
273.516	363.99
273.985	371.74
274.453	285.29
274.922	168.04
275.39	109.09
275.858	100.29
276.327	84.64
276.795	84.39
277.263	91.09
277.731	131.19
278.2	248.34
278.668	327.34
279.136	246.09
279.604	160.34
280.072	94.89
280.54	84.44
281.008	85.89
281.477	92.84
281.945	93.14
282.413	95.94
282.881	94.94
283.348	99.04
283.816	101.59
284.284	102.19
284.752	103.24
285.22	103.89
285.688	112.29
286.156	192.09
286.623	530.99
287.091	1052.54
287.559	540.84
288.026	208.04
288.494	131.79
288.962	105.64
289.429	101.94
289.897	99.69
290.364	89.89
290.832	88.19
291.3	90.84
291.767	94.74
292.234	97.39
292.702	101.89
293.169	110.99
293.637	115.49
294.104	114.44
294.571	115.74
295.039	111.34
295.506	105.24
295.973	116.24
296.44	107.39
296.908	125.14
297.375	142.09
297.842	133.94
298.309	111.14
298.776	114.69
299.243	121.19
299.71	116.69
300.177	116.99
300.644	129.39
301.111	140.39
301.578	128.89
302.045	120.24
302.512	117.59
302.979	121.84
303.446	129.04
303.913	131.04
304.379	139.49
304.846	156.59
305.313	167.69
305.78	199.24
306.246	246.94
306.713	264.69
307.18	229.19
307.646	251.74
308.113	217.59
308.579	170.99
309.046	168.59
309.512	173.74
309.979	162.64
310.445	146.79
310.912	149.44
311.378	146.49
311.845	145.89
312.311	148.04
312.777	150.79
313.244	153.79
313.71	158.84
314.176	173.54
314.642	204.59
315.109	239.44
315.575	222.74
316.041	200.69
316.507	187.64
316.973	212.24
317.439	207.09
317.905	228.74
318.371	227.44
318.837	214.24
319.303	224.74
319.769	209.94
320.235	231.14
320.701	261.69
321.167	284.39
321.633	345.09
322.099	474.99
322.564	649.14
323.03	504.84
323.496	352.34
323.962	330.69
324.427	307.34
324.893	263.74
325.359	255.44
325.824	220.79
326.29	232.39
326.755	239.14
327.221	237.79
327.686	247.24
328.152	227.94
328.617	213.14
329.083	218.44
329.548	227.74
330.014	240.34
330.479	253.39
330.944	305.64
331.41	352.69
331.875	337.79
332.34	348.74
332.805	400.29
333.271	515.74
333.736	689.09
334.201	614.04
334.666	452.79
335.131	510.79
335.596	409.39
336.061	432.59
336.526	432.14
336.991	380.24
337.456	416.39
337.921	325.74
338.386	262.34
338.851	238.39
339.316	222.09
339.781	216.54
340.246	222.89
340.711	219.49
341.175	224.39
341.64	235.54
342.105	233.39
342.569	256.79
343.034	273.59
343.499	275.39
343.963	262.59
344.428	258.89
344.893	263.79
345.357	275.19
345.822	266.19
346.286	272.24
346.751	284.74
347.215	278.29
347.679	289.09
348.144	309.39
348.608	301.74
349.073	308.29
349.537	355.29
350.001	347.29
350.465	318.39
350.93	312.79
351.394	313.69
351.858	308.79
352.322	324.14
352.786	326.04
353.25	320.39
353.715	323.04
354.179	341.04
354.643	353.69
355.107	370.14
355.571	387.34
356.035	395.69
356.498	381.49
356.962	411.89
357.426	406.39
357.89	364.19
358.354	343.44
358.818	337.54
359.281	349.39
359.745	368.69
360.209	360.89
360.673	366.54
361.136	372.79
361.6	370.14
362.064	388.89
362.527	398.84
362.991	397.79
363.454	401.09
363.918	403.54
364.381	397.09
364.845	384.89
365.308	380.74
365.772	379.79
366.235	391.94
366.698	410.39
367.162	495.94
367.625	557.84
368.088	444.04
368.552	407.19
369.015	412.39
369.478	443.09
369.941	445.89
370.404	453.74
370.867	484.54
371.331	490.89
371.794	500.89
372.257	563.44
372.72	599.19
373.183	557.49
373.646	570.59
374.109	567.39
374.572	661.79
375.035	779.29
375.497	593.79
375.96	470.84
376.423	443.29
376.886	446.99
377.349	456.14
377.811	464.44
378.274	468.19
378.737	479.34
379.199	493.49
379.662	505.69
380.125	540.49
380.587	598.74
381.05	637.14
381.512	631.99
381.975	608.59
382.437	600.49
382.9	603.34
383.362	600.49
383.825	645.19
384.287	816.14
384.75	924.59
385.212	794.19
385.674	664.19
386.136	598.89
386.599	593.44
387.061	616.04
387.523	650.89
387.985	649.14
388.447	670.19
388.91	752.39
389.372	915.99
389.834	861.89
390.296	713.49
390.758	714.79
391.22	735.74
391.682	906.14
392.144	1396.34
392.606	1305.99
393.068	770.34
393.529	694.89
393.991	679.19
394.453	661.09
394.915	707.89
395.377	854.89
395.838	1049.54
396.3	744.79
396.762	582.64
397.224	554.14
397.685	539.34
398.147	547.19
398.608	553.49
399.07	563.64
399.531	551.14
399.993	559.54
400.454	565.04
400.916	566.89
401.377	588.44
401.839	586.69
402.3	591.09
402.762	617.79
403.223	674.99
403.684	689.84
404.145	634.89
404.607	621.19
405.068	618.84
405.529	638.49
405.99	647.69
406.451	651.44
406.913	635.94
407.374	649.19
407.835	655.14
408.296	676.79
408.757	678.04
409.218	703.99
409.679	704.44
410.14	716.14
410.601	742.74
411.062	779.44
411.522	894.29
411.983	994.19
412.444	853.49
412.905	738.09
413.366	742.49
413.826	756.54
414.287	857.89
414.748	1004.14
415.208	1028.59
415.669	857.79
416.13	784.79
416.59	768.64
417.051	795.24
417.511	831.54
417.972	892.49
418.432	957.04
418.893	1056.79
419.353	1008.69
419.814	782.69
420.274	707.74
420.734	701.39
421.195	749.79
421.655	774.84
422.115	747.74
422.576	727.14
423.036	731.39
423.496	763.54
423.956	798.29
424.416	846.64
424.876	957.24
425.336	952.79
425.797	956.84
426.257	962.49
426.717	899.39
427.177	838.74
427.637	869.24
428.097	912.54
428.556	958.19
429.016	1046.84
429.476	1027.64
429.936	993.69
430.396	974.54
430.856	979.84
431.315	1012.19
431.775	1079.09
432.235	1137.84
432.694	1151.79
433.154	1084.19
433.614	1061.09
434.073	1019.44
434.533	924.54
434.993	892.94
435.452	898.94
435.912	884.84
436.371	883.89
436.83	881.49
437.29	900.64
437.749	851.49
438.209	839.54
438.668	845.74
439.127	857.54
439.587	842.44
440.046	807.69
440.505	819.19
440.964	814.49
441.424	838.89
441.883	842.89
442.342	806.94
442.801	785.29
443.26	807.24
443.719	799.79
444.178	789.34
444.637	792.79
445.096	793.54
445.555	820.29
446.014	813.99
446.473	791.24
446.932	790.24
447.391	802.34
447.849	825.69
448.308	807.94
448.767	831.44
449.226	847.64
449.685	856.59
450.143	894.84
450.602	898.79
451.061	855.09
451.519	865.09
451.978	896.74
452.436	925.59
452.895	878.54
453.353	852.69
453.812	866.34
454.27	850.54
454.729	821.24
455.187	827.99
455.646	828.84
456.104	840.34
456.562	835.59
457.021	825.84
457.479	787.54
457.937	814.39
458.395	838.44
458.854	828.29
459.312	814.19
459.77	825.99
460.228	837.49
460.686	851.59
461.144	860.29
461.602	838.04
462.06	850.74
462.518	855.89
462.976	860.39
463.434	869.24
463.892	877.89
464.35	896.89
464.808	903.14
465.266	919.24
465.724	935.89
466.181	935.09
466.639	932.79
467.097	965.84
467.555	1006.74
468.012	989.09
468.47	992.19
468.928	1030.14
469.385	1054.09
469.843	1075.04
470.3	1066.39
470.758	1100.09
471.215	1111.79
471.673	1141.04
472.13	1174.59
472.588	1197.44
473.045	1198.14
473.503	1222.64
473.96	1264.84
474.417	1284.04
474.875	1345.19
475.332	1386.34
475.789	1409.64
476.246	1450.64
476.704	1515.69
477.161	1565.04
477.618	1619.69
478.075	1711.99
478.532	1833.19
478.989	1983.84
479.446	2184.69
479.903	2313.39
480.36	2553.24
480.817	2716.04
481.274	2935.79
481.731	3216.59
482.188	3452.79
482.645	3738.24
483.102	3960.64
483.558	4255.79
484.015	4470.09
484.472	4493.04
484.929	4327.39
485.385	4120.84
485.842	4036.29
486.299	3819.94
486.755	3442.74
487.212	3062.24
487.668	2757.94
488.125	2550.94
488.582	2350.39
489.038	2249.04
489.494	2184.69
489.951	2100.19
490.407	2045.69
490.864	2023.09
491.32	1984.69
491.776	1944.29
492.233	1944.19
492.689	1914.19
493.145	1896.64
493.602	1876.84
494.058	1923.84
494.514	1950.29
494.97	1965.54
495.426	1979.39
495.882	1988.49
496.338	1996.89
496.794	2068.14
497.251	2086.39
497.707	2085.14
498.163	2087.64
498.618	2083.24
499.074	2106.74
499.53	2145.54
499.986	2182.89
500.442	2217.34
500.898	2227.09
501.354	2245.04
501.809	2263.99
502.265	2306.09
502.721	2414.29
503.177	2485.89
503.632	2354.04
504.088	2370.09
504.543	2583.14
504.999	2417.04
505.455	2126.94
505.91	2008.49
506.366	1983.14
506.821	1985.59
507.277	1975.64
507.732	1986.59
508.187	1973.89
508.643	1993.99
509.098	1993.34
509.553	2020.54
510.009	2032.89
510.464	2075.14
510.919	2093.34
511.375	2124.49
511.83	2152.89
512.285	2196.69
512.74	2242.59
513.195	2262.09
513.65	2316.79
514.105	2347.19
514.56	2363.09
515.015	2414.24
515.47	2430.99
515.925	2427.44
516.38	2401.39
516.835	2388.99
517.29	2386.44
517.745	2411.79
518.2	2367.99
518.655	2304.89
519.109	2257.14
519.564	2233.94
520.019	2245.49
520.474	2193.29
520.928	2185.64
521.383	2177.89
521.838	2171.74
522.292	2150.89
522.747	2123.79
523.201	2111.14
523.656	2086.99
524.11	2089.29
524.565	2079.34
525.019	2082.79
525.474	2099.49
525.928	2089.94
526.382	2071.19
526.837	2064.04
527.291	2060.59
527.745	2035.44
528.2	2033.54
528.654	2005.34
529.108	2041.49
529.562	2047.39
530.016	2026.54
530.47	2048.24
530.925	2043.64
531.379	2050.69
531.833	2074.84
532.287	2059.64
532.741	2042.79
533.195	2045.74
533.649	2052.19
534.103	2060.64
534.556	2031.04
535.01	2053.94
535.464	2046.29
535.918	2054.39
536.372	2065.29
536.826	2042.84
537.279	2031.89
537.733	2024.49
538.187	2054.34
538.64	2049.64
539.094	2071.69
539.548	2101.39
540.001	2085.74
540.455	2101.34
540.908	2112.89
541.362	2132.09
541.815	2164.19
542.269	2194.79
542.722	2185.19
543.175	2214.29
543.629	2225.14
544.082	2237.24
544.536	2264.74
544.989	2268.39
545.442	2280.24
545.895	2269.89
546.349	2275.59
546.802	2279.29
547.255	2278.34
547.708	2292.39
548.161	2312.79
548.614	2307.44
549.067	2318.44
549.52	2314.59
549.973	2282.84
550.426	2279.69
550.879	2251.44
551.332	2242.79
551.785	2267.69
552.238	2297.89
552.691	2292.84
553.144	2318.34
553.596	2349.19
554.049	2381.14
554.502	2439.54
554.955	2477.34
555.407	2508.29
555.86	2492.09
556.313	2462.19
556.765	2439.24
557.218	2402.44
557.67	2411.99
558.123	2381.09
558.576	2359.94
559.028	2361.19
559.48	2378.59
559.933	2372.04
560.385	2308.84
560.838	2231.59
561.29	2169.59
561.742	2154.49
562.195	2093.59
562.647	2085.19
563.099	2097.24
563.551	2076.64
564.004	2098.29
564.456	2088.54
564.908	2050.39
565.36	2002.94
565.812	1964.59
566.264	1951.74
566.716	1915.89
567.168	1885.64
567.62	1906.84
568.072	1889.39
568.524	1865.29
568.976	1860.14
569.428	1832.04
569.88	1833.34
570.332	1839.34
570.784	1824.89
571.235	1819.54
571.687	1846.19
572.139	1854.64
572.59	1854.34
573.042	1867.69
573.494	1867.84
573.945	1844.74
574.397	1806.34
574.849	1806.49
575.3	1808.39
575.752	1790.49
576.203	1763.19
576.655	1785.14
577.106	1746.44
577.557	1743.39
578.009	1740.24
578.46	1743.89
578.912	1716.94
579.363	1739.74
579.814	1721.94
580.265	1721.74
580.717	1721.44
581.168	1730.54
581.619	1747.04
582.07	1757.64
582.521	1742.64
582.972	1758.59
583.423	1774.74
583.875	1813.34
584.326	1911.29
584.777	2107.19
585.227	2316.49
585.678	2491.74
586.129	2540.69
586.58	2590.89
587.031	2612.14
587.482	2772.44
587.933	3274.49
588.384	3007.84
588.834	2436.09
589.285	2038.39
589.736	1977.54
590.186	1986.64
590.637	1959.44
591.088	1921.94
591.538	1899.84
591.989	1880.24
592.439	1863.59
592.89	1860.69
593.34	1856.54
593.791	1872.94
594.241	1882.99
594.692	1908.49
595.142	1889.54
595.593	1858.99
596.043	1856.69
596.493	1889.49
596.943	1942.74
597.394	1914.14
597.844	1883.29
598.294	1909.94
598.744	1962.04
599.195	2057.84
599.645	2171.14
600.095	2278.54
600.545	2385.19
600.995	2495.19
601.445	2568.14
601.895	2713.29
602.345	2784.44
602.795	2740.54
603.245	2630.64
603.695	2455.04
604.145	2328.29
604.594	2214.74
605.044	2107.99
605.494	1976.59
605.944	1884.29
606.393	1838.54
606.843	1817.94
607.293	1822.09
607.743	1818.69
608.192	1823.59
608.642	1831.39
609.091	1824.49
609.541	1831.04
609.99	1826.59
610.44	1802.24
610.889	1777.39
611.339	1758.64
611.788	1747.74
612.238	1760.04
612.687	1778.74
613.136	1817.19
613.586	1852.09
614.035	1841.14
614.484	1869.24
614.933	1881.49
615.383	1832.39
615.832	1774.59
616.281	1729.29
616.73	1687.44
617.179	1644.54
617.628	1600.89
618.077	1577.99
618.526	1550.09
618.975	1534.89
619.424	1510.59
619.873	1521.19
620.322	1510.49
620.771	1500.24
621.22	1488.29
621.669	1451.14
622.118	1445.14
622.567	1425.99
623.015	1405.74
623.464	1404.74
623.913	1374.99
624.361	1377.74
624.81	1389.49
625.259	1368.54
625.707	1359.39
626.156	1362.34
626.604	1375.54
627.053	1374.44
627.501	1376.49
627.95	1381.84
628.398	1403.79
628.847	1382.39
629.295	1397.39
629.744	1408.99
630.192	1455.24
630.64	1579.69
631.089	1741.64
631.537	1836.39
631.985	1839.94
632.433	1917.34
632.881	1909.99
633.33	2310.09
633.778	2536.79
634.226	1761.54
634.674	1611.19
635.122	1606.44
635.57	1624.19
636.018	1907.39
636.466	1533.84
636.914	1349.39
637.362	1339.99
637.81	1365.19
638.258	1403.79
638.705	1414.74
639.153	1452.59
639.601	1466.74
640.049	1481.39
640.497	1532.34
640.944	1574.19
641.392	1502.74
641.84	1416.14
642.287	1365.29
642.735	1345.24
643.182	1331.04
643.63	1326.84
644.078	1343.74
644.525	1359.64
644.973	1389.44
645.42	1408.34
645.867	1435.34
646.315	1466.64
646.762	1516.14
647.21	1559.74
647.657	1635.79
648.104	1717.79
648.551	1775.09
648.999	1920.74
649.446	2132.89
649.893	2400.64
650.34	2823.44
650.787	3522.79
651.234	4618.49
651.682	6453.59
652.129	9250.29
652.576	13284.74
653.023	15535.99
653.47	15539.19
653.917	15539.24
654.363	15539.14
654.81	15536.14
655.257	15536.79
655.704	15540.59
656.151	9943.24
656.598	6453.89
657.044	4557.79
657.491	3537.49
657.938	2871.69
658.385	2412.49
658.831	2127.34
659.278	1898.69
659.724	1729.04
660.171	1604.94
660.618	1490.29
661.064	1403.24
661.511	1362.59
661.957	1306.44
662.404	1270.34
662.85	1253.04
663.296	1243.69
663.743	1208.59
664.189	1205.44
664.635	1190.84
665.082	1177.99
665.528	1159.99
665.974	1127.44
666.42	1117.94
666.867	1147.54
667.313	1161.54
667.759	1214.49
668.205	1209.84
668.651	1233.09
669.097	1191.59
669.543	1295.84
669.989	1217.29
670.435	1059.99
670.881	1057.79
671.327	1097.24
671.773	1170.64
672.219	1255.84
672.665	1329.59
673.11	1371.29
673.556	1385.39
674.002	1415.84
674.448	1434.89
674.893	1215.19
675.339	1061.64
675.785	979.64
676.23	928.74
676.676	900.99
677.122	874.99
677.567	851.94
678.013	825.54
678.458	826.74
678.904	819.59
679.349	815.89
679.794	811.19
680.24	811.59
680.685	805.74
681.131	807.09
681.576	803.19
682.021	807.99
682.466	817.94
682.912	828.09
683.357	868.24
683.802	939.34
684.247	1030.74
684.692	1097.44
685.137	1137.49
685.583	1148.14
686.028	1213.94
686.473	1148.79
686.918	985.84
687.363	913.54
687.807	861.79
688.252	819.99
688.697	797.84
689.142	768.79
689.587	778.99
690.032	798.74
690.477	822.64
690.921	859.69
691.366	912.59
691.811	946.59
692.255	1015.99
692.7	1248.84
693.145	1807.29
693.589	2752.99
694.034	3250.34
694.478	3417.99
694.923	3123.74
695.367	4410.34
695.812	2691.94
696.256	1148.19
696.701	851.69
697.145	787.09
697.59	758.19
698.034	757.39
698.478	758.69
698.922	761.39
699.367	777.79
699.811	813.24
700.255	880.94
700.699	964.34
701.143	1045.14
701.588	1096.84
702.032	1142.24
702.476	1168.89
702.92	1246.24
703.364	1638.74
703.808	2504.69
704.252	3127.59
704.696	3254.79
705.14	3053.84
705.584	4175.24
706.027	2337.09
706.471	1183.99
706.915	883.59
707.359	792.79
707.803	746.84
708.246	716.04
708.69	714.59
709.134	704.34
709.577	706.39
710.021	715.34
710.465	710.74
710.908	708.94
711.352	739.19
711.795	816.99
712.239	875.54
712.682	903.99
713.126	896.54
713.569	996.54
714.012	824.44
714.456	722.44
714.899	680.74
715.342	642.24
715.786	612.99
716.229	590.44
716.672	579.99
717.115	580.79
717.558	588.24
718.002	610.39
718.445	634.19
718.888	660.79
719.331	675.54
719.774	688.04
720.217	666.34
720.66	628.99
721.103	602.14
721.546	572.99
721.989	560.69
722.432	557.94
722.874	554.49
723.317	558.54
723.76	611.19
724.203	748.19
724.645	990.79
725.088	1160.69
725.531	1126.99
725.974	1229.39
726.416	1106.09
726.859	691.94
727.301	567.29
727.744	544.14
728.187	539.69
728.629	553.09
729.071	580.79
729.514	605.44
729.956	632.04
730.399	636.99
730.841	634.14
731.283	619.39
731.726	607.59
732.168	613.74
732.61	643.54
733.053	700.59
733.495	766.49
733.937	857.49
734.379	1011.59
734.821	1285.54
735.263	2061.74
735.705	3717.29
736.148	5394.64
736.59	5328.79
737.032	5754.24
737.474	4732.39
737.916	1834.89
738.357	958.44
738.799	753.49
739.241	700.89
739.683	709.34
740.125	706.34
740.567	712.14
741.008	745.49
741.45	778.64
741.892	794.79
742.334	795.34
742.775	786.39
743.217	745.39
