Data from MSPlasma+Separation6_Subt14_10-15-39-259.txt Node
Date: Fri Jul 21 10:15:39 EDT 2017
User: Ender
Spectrometer: HR+D1039
Trigger mode: 0
Integration Time (sec): 2.510000E-3
Scans to average: 20
Electric dark correction enabled: true
Nonlinearity correction enabled: false
Boxcar width: 0
XAxis mode: Wavelengths
Number of Pixels in Spectrum: 2048
>>>>>Begin Spectral Data<<<<<
187.836	0.17
188.309	0.17
188.782	0.17
189.255	1.57
189.728	0.57
190.201	-0.23
190.674	-0.48
191.147	2.22
191.619	-1.63
192.092	0.52
192.565	-4.78
193.038	3.32
193.511	3.07
193.984	1.47
194.456	-2.83
194.929	0.27
195.402	-3.38
195.874	0.22
196.347	1.32
196.82	2.57
197.292	-3.13
197.765	0.57
198.237	-1.53
198.71	-3.48
199.182	-2.48
199.655	5.17
200.127	2.07
200.6	4.27
201.072	-3.43
201.544	-1.38
202.017	1.77
202.489	0.42
202.961	-1.98
203.433	-4.83
203.906	-4.78
204.378	-0.63
204.85	-1.58
205.322	-0.83
205.794	5.87
206.266	-1.48
206.739	-0.58
207.211	-6.83
207.683	0.82
208.155	-1.28
208.627	0.92
209.099	1.57
209.57	-1.63
210.042	4.32
210.514	2.32
210.986	1.37
211.458	8.12
211.93	1.27
212.402	1.27
212.873	-4.08
213.345	-6.83
213.817	0.77
214.288	-4.73
214.76	1.07
215.232	-3.13
215.703	-3.03
216.175	2.07
216.646	1.22
217.118	-2.83
217.589	-6.33
218.061	2.17
218.532	-6.48
219.004	4.27
219.475	2.62
219.946	9.67
220.418	14.27
220.889	8.62
221.36	2.72
221.832	6.22
222.303	2.17
222.774	2.07
223.245	-0.98
223.717	1.37
224.188	1.52
224.659	1.02
225.13	-2.43
225.601	0.72
226.072	0.32
226.543	2.62
227.014	-1.48
227.485	3.37
227.956	0.47
228.427	5.32
228.898	2.57
229.369	-1.13
229.839	4.32
230.31	0.82
230.781	2.62
231.252	5.97
231.722	10.32
232.193	13.77
232.664	14.27
233.135	20.22
233.605	24.47
234.076	16.42
234.546	12.37
235.017	17.12
235.487	13.82
235.958	13.47
236.428	25.17
236.899	37.67
237.369	46.27
237.84	28.57
238.31	44.72
238.78	34.27
239.251	36.32
239.721	35.82
240.191	27.47
240.662	18.12
241.132	15.67
241.602	18.47
242.072	21.47
242.542	30.52
243.013	20.62
243.483	17.92
243.953	13.52
244.423	13.07
244.893	12.97
245.363	21.72
245.833	17.42
246.303	19.32
246.773	29.22
247.243	22.37
247.712	32.62
248.182	39.52
248.652	45.02
249.122	61.57
249.592	119.52
250.061	182.92
250.531	287.52
251.001	213.12
251.471	179.77
251.94	137.92
252.41	73.87
252.879	50.57
253.349	40.97
253.818	28.97
254.288	27.87
254.757	29.42
255.227	36.17
255.696	31.52
256.166	24.97
256.635	29.32
257.105	37.92
257.574	47.82
258.043	53.77
258.513	89.67
258.982	112.22
259.451	74.32
259.92	77.02
260.389	76.87
260.859	51.72
261.328	63.42
261.797	93.82
262.266	80.22
262.735	37.57
263.204	18.62
263.673	22.37
264.142	13.97
264.611	14.77
265.08	19.42
265.549	20.17
266.018	17.72
266.487	20.12
266.955	18.42
267.424	25.02
267.893	30.07
268.362	21.37
268.83	16.87
269.299	18.47
269.768	29.02
270.236	29.37
270.705	33.82
271.174	32.67
271.642	39.17
272.111	43.92
272.579	73.72
273.048	114.47
273.516	146.57
273.985	149.42
274.453	112.92
274.922	65.22
275.39	41.32
275.858	38.47
276.327	34.02
276.795	32.12
277.263	37.22
277.731	48.67
278.2	103.22
278.668	127.62
279.136	104.87
279.604	64.92
280.072	38.82
280.54	33.27
281.008	32.62
281.477	34.47
281.945	34.02
282.413	33.42
282.881	35.87
283.348	33.77
283.816	36.17
284.284	40.07
284.752	43.12
285.22	40.97
285.688	45.07
286.156	79.77
286.623	221.97
287.091	429.87
287.559	219.07
288.026	90.77
288.494	56.62
288.962	41.47
289.429	37.67
289.897	35.52
290.364	28.72
290.832	36.62
291.3	37.47
291.767	40.97
292.234	46.07
292.702	41.62
293.169	49.02
293.637	46.47
294.104	46.92
294.571	41.27
295.039	46.67
295.506	43.17
295.973	49.02
296.44	40.17
296.908	49.77
297.375	55.52
297.842	56.17
298.309	48.07
298.776	43.67
299.243	53.32
299.71	46.12
300.177	43.87
300.644	51.37
301.111	59.12
301.578	52.02
302.045	48.22
302.512	47.32
302.979	51.12
303.446	54.17
303.913	57.02
304.379	61.82
304.846	65.37
305.313	75.17
305.78	86.87
306.246	107.42
306.713	111.77
307.18	95.87
307.646	106.32
308.113	92.07
308.579	78.37
309.046	78.22
309.512	75.67
309.979	68.62
310.445	57.77
310.912	62.82
311.378	65.17
311.845	63.32
312.311	56.87
312.777	55.87
313.244	67.47
313.71	70.82
314.176	72.52
314.642	87.22
315.109	99.87
315.575	92.87
316.041	89.32
316.507	81.57
316.973	90.42
317.439	92.97
317.905	96.12
318.371	93.97
318.837	93.92
319.303	97.27
319.769	84.77
320.235	100.77
320.701	110.17
321.167	117.62
321.633	146.82
322.099	198.17
322.564	270.87
323.03	205.92
323.496	141.32
323.962	145.42
324.427	129.12
324.893	115.22
325.359	113.52
325.824	91.57
326.29	98.87
326.755	100.02
327.221	99.37
327.686	104.77
328.152	97.02
328.617	91.87
329.083	92.42
329.548	100.67
330.014	104.32
330.479	116.62
330.944	134.12
331.41	154.17
331.875	145.72
332.34	151.17
332.805	175.17
333.271	221.87
333.736	292.57
334.201	255.97
334.666	199.02
335.131	216.27
335.596	174.97
336.061	183.27
336.526	187.37
336.991	159.37
337.456	178.42
337.921	138.07
338.386	114.32
338.851	106.82
339.316	102.92
339.781	98.92
340.246	94.72
340.711	92.52
341.175	95.37
341.64	99.07
342.105	105.62
342.569	112.77
343.034	113.07
343.499	121.57
343.963	118.87
344.428	115.77
344.893	116.02
345.357	118.07
345.822	116.57
346.286	118.82
346.751	124.82
347.215	124.22
347.679	129.62
348.144	139.52
348.608	131.97
349.073	140.42
349.537	154.02
350.001	154.02
350.465	145.42
350.93	136.07
351.394	135.92
351.858	139.42
352.322	138.87
352.786	140.67
353.25	141.12
353.715	141.92
354.179	148.47
354.643	153.72
355.107	161.42
355.571	172.32
356.035	168.97
356.498	166.97
356.962	181.17
357.426	177.22
357.89	158.67
358.354	149.87
358.818	151.52
359.281	157.97
359.745	164.97
360.209	157.72
360.673	163.37
361.136	165.87
361.6	165.72
362.064	172.27
362.527	172.67
362.991	169.42
363.454	175.12
363.918	179.07
364.381	172.47
364.845	177.12
365.308	166.72
365.772	171.92
366.235	173.67
366.698	181.57
367.162	213.17
367.625	243.67
368.088	197.87
368.552	177.32
369.015	179.62
369.478	193.92
369.941	200.12
370.404	199.82
370.867	212.32
371.331	216.17
371.794	221.97
372.257	238.07
372.72	254.37
373.183	248.27
373.646	247.32
374.109	247.07
374.572	283.67
375.035	329.52
375.497	254.17
375.96	211.87
376.423	201.77
376.886	198.77
377.349	204.87
377.811	202.92
378.274	210.27
378.737	208.77
379.199	212.82
379.662	222.82
380.125	238.52
380.587	263.07
381.05	267.92
381.512	278.17
381.975	261.72
382.437	265.32
382.9	262.27
383.362	265.07
383.825	284.62
384.287	358.32
384.75	398.17
385.212	348.77
385.674	294.67
386.136	269.62
386.599	266.42
387.061	273.52
387.523	286.72
387.985	284.82
388.447	297.67
388.91	334.52
389.372	405.62
389.834	384.47
390.296	310.42
390.758	318.67
391.22	334.22
391.682	402.67
392.144	616.47
392.606	573.22
393.068	345.22
393.529	314.67
393.991	308.17
394.453	294.77
394.915	309.07
395.377	373.32
395.838	461.82
396.3	337.27
396.762	256.77
397.224	246.87
397.685	237.27
398.147	244.62
398.608	246.42
399.07	251.47
399.531	244.97
399.993	251.22
400.454	248.37
400.916	249.17
401.377	259.32
401.839	258.92
402.3	265.67
402.762	278.52
403.223	303.42
403.684	305.67
404.145	286.82
404.607	276.22
405.068	278.97
405.529	288.22
405.99	284.47
406.451	293.07
406.913	287.17
407.374	294.57
407.835	291.32
408.296	304.77
408.757	304.47
409.218	313.22
409.679	321.77
410.14	322.62
410.601	343.87
411.062	349.27
411.522	408.07
411.983	442.72
412.444	382.82
412.905	331.82
413.366	334.37
413.826	340.97
414.287	379.57
414.748	442.07
415.208	449.97
415.669	386.12
416.13	350.97
416.59	342.42
417.051	359.72
417.511	368.92
417.972	394.27
418.432	427.12
418.893	471.17
419.353	447.62
419.814	357.07
420.274	319.37
420.734	312.02
421.195	339.47
421.655	352.47
422.115	342.02
422.576	323.82
423.036	320.77
423.496	336.52
423.956	354.77
424.416	380.47
424.876	428.07
425.336	427.32
425.797	425.42
426.257	428.47
426.717	400.82
427.177	381.97
427.637	393.77
428.097	412.42
428.556	433.92
429.016	468.87
429.476	462.12
429.936	456.57
430.396	440.72
430.856	447.57
431.315	458.37
431.775	489.92
432.235	513.27
432.694	519.67
433.154	493.32
433.614	479.97
434.073	463.87
434.533	428.47
434.993	406.42
435.452	409.77
435.912	400.97
436.371	396.32
436.83	396.77
437.29	400.52
437.749	384.92
438.209	374.87
438.668	375.92
439.127	379.77
439.587	376.77
440.046	349.42
440.505	362.57
440.964	363.37
441.424	372.32
441.883	380.72
442.342	365.82
442.801	346.82
443.26	359.77
443.719	352.17
444.178	347.52
444.637	354.62
445.096	354.32
445.555	359.62
446.014	362.87
446.473	352.62
446.932	355.67
447.391	356.07
447.849	363.82
448.308	352.77
448.767	368.62
449.226	371.37
449.685	379.42
450.143	393.02
450.602	393.57
451.061	376.32
451.519	379.42
451.978	388.22
452.436	396.57
452.895	386.57
453.353	370.32
453.812	375.17
454.27	370.52
454.729	361.12
455.187	364.12
455.646	366.97
456.104	375.62
456.562	366.27
457.021	369.42
457.479	354.27
457.937	362.17
458.395	370.67
458.854	368.37
459.312	359.87
459.77	364.02
460.228	374.62
460.686	369.12
461.144	384.32
461.602	366.52
462.06	372.37
462.518	390.72
462.976	383.82
463.434	386.52
463.892	391.32
464.35	397.12
464.808	399.67
465.266	413.22
465.724	417.92
466.181	411.07
466.639	409.57
467.097	433.47
467.555	441.37
468.012	437.47
468.47	439.57
468.928	460.12
469.385	467.22
469.843	476.72
470.3	471.07
470.758	484.77
471.215	497.72
471.673	505.52
472.13	518.72
472.588	537.02
473.045	529.22
473.503	538.57
473.96	568.27
474.417	566.77
474.875	594.42
475.332	618.22
475.789	634.77
476.246	651.22
476.704	682.72
477.161	699.17
477.618	719.62
478.075	766.07
478.532	831.07
478.989	898.17
479.446	997.92
479.903	1056.72
480.36	1168.37
480.817	1248.22
481.274	1342.12
481.731	1469.57
482.188	1586.57
482.645	1720.57
483.102	1820.67
483.558	1933.47
484.015	2023.77
484.472	2045.32
484.929	1961.87
485.385	1878.87
485.842	1816.87
486.299	1730.12
486.755	1556.17
487.212	1395.12
487.668	1255.47
488.125	1155.62
488.582	1064.62
489.038	1004.77
489.494	965.02
489.951	933.42
490.407	908.97
490.864	899.27
491.32	876.37
491.776	857.32
492.233	865.67
492.689	845.07
493.145	828.32
493.602	822.37
494.058	844.57
494.514	858.22
494.97	856.92
495.426	863.37
495.882	859.62
496.338	862.12
496.794	900.02
497.251	903.92
497.707	903.42
498.163	898.87
498.618	896.37
499.074	913.37
499.53	938.82
499.986	948.47
500.442	951.22
500.898	962.17
501.354	977.67
501.809	986.62
502.265	992.62
502.721	1040.57
503.177	1067.72
503.632	1012.92
504.088	1013.62
504.543	1112.72
504.999	1041.72
505.455	917.37
505.91	878.32
506.366	869.12
506.821	863.62
507.277	856.87
507.732	866.02
508.187	862.07
508.643	872.17
509.098	879.97
509.553	880.27
510.009	885.92
510.464	903.77
510.919	914.17
511.375	922.02
511.83	933.47
512.285	951.67
512.74	975.22
513.195	982.42
513.65	1002.57
514.105	1020.07
514.56	1024.87
515.015	1033.52
515.47	1046.97
515.925	1043.67
516.38	1035.47
516.835	1034.57
517.29	1039.97
517.745	1036.92
518.2	1017.62
518.655	990.97
519.109	983.47
519.564	968.37
520.019	972.97
520.474	956.07
520.928	950.52
521.383	946.97
521.838	939.77
522.292	937.57
522.747	918.92
523.201	926.87
523.656	909.97
524.11	907.77
524.565	906.07
525.019	904.12
525.474	909.77
525.928	912.27
526.382	898.02
526.837	901.67
527.291	895.42
527.745	885.67
528.2	891.67
528.654	877.77
529.108	882.67
529.562	891.02
530.016	880.42
530.47	887.22
530.925	889.82
531.379	891.37
531.833	903.42
532.287	891.57
532.741	884.02
533.195	890.57
533.649	886.42
534.103	890.17
534.556	880.52
535.01	892.97
535.464	884.37
535.918	888.62
536.372	897.47
536.826	888.37
537.279	884.22
537.733	887.97
538.187	895.37
538.64	893.47
539.094	905.22
539.548	913.37
540.001	901.72
540.455	909.57
540.908	926.82
541.362	931.47
541.815	933.17
542.269	961.97
542.722	937.97
543.175	952.92
543.629	962.72
544.082	971.32
544.536	982.47
544.989	981.32
545.442	992.12
545.895	982.27
546.349	978.82
546.802	993.17
547.255	988.37
547.708	993.92
548.161	1001.67
548.614	1002.62
549.067	1011.82
549.52	1002.37
549.973	986.17
550.426	979.42
550.879	972.82
551.332	976.77
551.785	987.12
552.238	993.37
552.691	981.97
553.144	1003.72
553.596	1027.02
554.049	1036.97
554.502	1050.02
554.955	1062.37
555.407	1084.82
555.86	1067.97
556.313	1061.77
556.765	1057.47
557.218	1033.67
557.67	1047.17
558.123	1015.72
558.576	1021.42
559.028	1015.92
559.48	1028.32
559.933	1024.42
560.385	993.12
560.838	961.47
561.29	939.62
561.742	938.12
562.195	911.82
562.647	904.87
563.099	900.17
563.551	903.32
564.004	908.67
564.456	898.72
564.908	883.52
565.36	863.02
565.812	856.67
566.264	842.47
566.716	834.72
567.168	822.87
567.62	823.62
568.072	833.87
568.524	810.72
568.976	805.67
569.428	804.92
569.88	797.37
570.332	805.77
570.784	800.12
571.235	798.47
571.687	803.12
572.139	802.47
572.59	812.42
573.042	806.47
573.494	813.22
573.945	787.42
574.397	783.67
574.849	784.17
575.3	788.22
575.752	774.12
576.203	763.27
576.655	772.07
577.106	754.12
577.557	763.62
578.009	763.27
578.46	757.77
578.912	754.37
579.363	756.22
579.814	754.87
580.265	753.27
580.717	759.77
581.168	752.12
581.619	751.37
582.07	758.87
582.521	760.92
582.972	762.42
583.423	772.37
583.875	791.27
584.326	819.97
584.777	906.32
585.227	984.57
585.678	1040.27
586.129	1065.67
586.58	1085.27
587.031	1096.97
587.482	1154.12
587.933	1337.82
588.384	1241.62
588.834	1031.87
589.285	879.37
589.736	873.22
590.186	870.12
590.637	853.92
591.088	831.62
591.538	817.67
591.989	819.72
592.439	811.97
592.89	807.57
593.34	809.77
593.791	811.32
594.241	817.17
594.692	835.77
595.142	825.02
595.593	807.77
596.043	802.67
596.493	814.17
596.943	833.62
597.394	829.22
597.844	811.32
598.294	828.62
598.744	855.97
599.195	887.42
599.645	947.87
600.095	979.57
600.545	1033.87
600.995	1070.37
601.445	1105.87
601.895	1150.27
602.345	1193.82
602.795	1171.72
603.245	1125.22
603.695	1050.87
604.145	992.12
604.594	952.47
605.044	907.02
605.494	852.97
605.944	815.22
606.393	804.32
606.843	794.72
607.293	788.92
607.743	786.42
608.192	799.12
608.642	794.07
609.091	795.47
609.541	794.17
609.99	792.02
610.44	779.97
610.889	777.17
611.339	756.22
611.788	753.32
612.238	765.77
612.687	769.22
613.136	783.12
613.586	797.32
614.035	790.77
614.484	800.22
614.933	805.62
615.383	788.12
615.832	765.12
616.281	749.37
616.73	728.27
617.179	712.27
617.628	693.07
618.077	687.87
618.526	672.02
618.975	671.02
619.424	662.32
619.873	661.37
620.322	656.22
620.771	659.12
621.22	649.62
621.669	635.57
622.118	633.97
622.567	628.12
623.015	610.47
623.464	611.87
623.913	602.87
624.361	605.57
624.81	601.77
625.259	602.02
625.707	594.77
626.156	593.87
626.604	603.97
627.053	601.47
627.501	597.22
627.95	605.67
628.398	611.37
628.847	606.37
629.295	610.22
629.744	620.82
630.192	643.27
630.64	690.27
631.089	759.77
631.537	794.92
631.985	785.82
632.433	821.67
632.881	820.07
633.33	981.92
633.778	1069.67
634.226	768.22
634.674	703.17
635.122	697.87
635.57	708.92
636.018	821.47
636.466	670.27
636.914	599.57
637.362	588.32
637.81	599.97
638.258	621.37
638.705	614.67
639.153	636.77
639.601	649.52
640.049	653.52
640.497	672.92
640.944	690.02
641.392	658.07
641.84	620.67
642.287	602.22
642.735	599.52
643.182	592.02
643.63	590.87
644.078	588.77
644.525	603.12
644.973	614.17
645.42	637.92
645.867	644.42
646.315	653.27
646.762	680.37
647.21	706.12
647.657	738.02
648.104	779.47
648.551	798.92
648.999	882.62
649.446	986.22
649.893	1108.82
650.34	1313.32
650.787	1631.62
651.234	2118.07
651.682	2988.92
652.129	4319.12
652.576	6266.57
653.023	8357.97
653.47	9704.07
653.917	10495.87
654.363	10811.82
654.81	11458.02
655.257	11473.27
655.704	7823.92
656.151	4572.37
656.598	2957.47
657.044	2096.67
657.491	1639.22
657.938	1325.22
658.385	1110.57
658.831	978.77
659.278	867.32
659.724	779.22
660.171	738.47
660.618	677.47
661.064	633.37
661.511	610.27
661.957	589.62
662.404	580.92
662.85	564.87
663.296	553.97
663.743	543.72
664.189	540.82
664.635	529.02
665.082	522.42
665.528	521.17
665.974	504.92
666.42	497.47
666.867	505.37
667.313	515.67
667.759	528.02
668.205	532.97
668.651	536.12
669.097	522.22
669.543	566.97
669.989	533.12
670.435	473.52
670.881	463.72
671.327	491.02
671.773	513.52
672.219	556.22
672.665	587.32
673.11	604.42
673.556	608.22
674.002	616.47
674.448	625.62
674.893	533.27
675.339	463.92
675.785	431.47
676.23	415.37
676.676	400.07
677.122	394.42
677.567	378.22
678.013	365.17
678.458	369.37
678.904	364.87
679.349	356.17
679.794	361.52
680.24	359.62
680.685	350.22
681.131	356.77
681.576	359.22
682.021	358.52
682.466	366.72
682.912	364.07
683.357	382.77
683.802	413.82
684.247	454.32
684.692	479.22
685.137	498.42
685.583	500.02
686.028	518.17
686.473	500.72
686.918	430.62
687.363	400.82
687.807	380.82
688.252	359.57
688.697	349.82
689.142	339.67
689.587	343.02
690.032	351.22
690.477	364.27
690.921	382.27
691.366	400.77
691.811	415.12
692.255	449.97
692.7	544.37
693.145	791.02
693.589	1180.12
694.034	1394.62
694.478	1460.52
694.923	1321.62
695.367	1812.87
695.812	1151.07
696.256	507.67
696.701	374.82
697.145	350.02
697.59	337.17
698.034	337.02
698.478	327.97
698.922	334.92
699.367	343.97
699.811	364.47
700.255	393.77
700.699	419.92
701.143	456.52
701.588	479.72
702.032	493.67
702.476	504.07
702.92	538.87
703.364	718.22
703.808	1087.97
704.252	1336.17
704.696	1388.37
705.14	1292.72
705.584	1713.82
706.027	1010.02
706.471	517.72
706.915	385.07
707.359	347.32
707.803	328.22
708.246	314.57
708.69	317.77
709.134	305.32
709.577	310.72
710.021	314.42
710.465	310.72
710.908	304.27
711.352	325.67
711.795	358.77
712.239	381.22
712.682	390.07
713.126	382.27
713.569	429.22
714.012	358.82
714.456	321.57
714.899	295.82
715.342	276.52
715.786	269.72
716.229	260.52
716.672	257.87
717.115	250.42
717.558	257.57
718.002	265.22
718.445	275.62
718.888	291.92
719.331	298.57
719.774	298.27
720.217	295.72
720.66	277.82
721.103	264.62
721.546	244.37
721.989	241.87
722.432	238.52
722.874	242.32
723.317	242.72
723.76	270.17
724.203	329.52
724.645	439.22
725.088	498.07
725.531	487.17
725.974	529.27
726.416	474.47
726.859	303.97
727.301	249.17
727.744	241.02
728.187	237.82
728.629	239.37
729.071	258.02
729.514	268.07
729.956	276.77
730.399	280.22
730.841	278.42
731.283	267.57
731.726	262.62
732.168	260.82
732.61	284.52
733.053	301.47
733.495	337.62
733.937	377.47
734.379	441.02
734.821	574.32
735.263	902.62
735.705	1584.17
736.148	2254.37
736.59	2207.52
737.032	2353.27
737.474	1960.32
737.916	799.32
738.357	431.42
738.799	324.82
739.241	309.42
739.683	303.82
740.125	314.22
740.567	309.02
741.008	329.62
741.45	339.07
741.892	352.07
742.334	348.17
742.775	344.27
743.217	328.92
743.658	287.57
744.1	289.87
744.542	328.12
744.983	332.02
745.425	350.47
745.866	338.92
746.307	309.52
746.749	343.12
747.19	494.42
747.632	954.72
748.073	1701.87
748.514	2297.67
748.956	3048.32
749.397	3504.62
749.838	2441.77
750.279	2265.32
750.72	1237.42
751.162	534.77
751.603	304.32
752.044	245.47
752.485	223.67
752.926	205.97
753.367	195.07
753.808	192.27
754.249	189.47
754.69	189.77
755.131	186.87
755.572	186.37
756.013	184.92
756.453	185.37
756.894	195.82
757.335	192.42
