Data from MSPlasma+Separation6_Subt14_10-15-19-614.txt Node
Date: Fri Jul 21 10:15:19 EDT 2017
User: Ender
Spectrometer: HR+D1039
Trigger mode: 0
Integration Time (sec): 6.430000E-3
Scans to average: 20
Electric dark correction enabled: true
Nonlinearity correction enabled: false
Boxcar width: 0
XAxis mode: Wavelengths
Number of Pixels in Spectrum: 2048
>>>>>Begin Spectral Data<<<<<
187.836	-1.13
188.309	-1.13
188.782	-1.13
189.255	0.52
189.728	2.27
190.201	-0.13
190.674	2.57
191.147	-0.78
191.619	4.47
192.092	1.12
192.565	-0.98
193.038	1.22
193.511	4.47
193.984	-2.88
194.456	-3.23
194.929	-1.98
195.402	-5.28
195.874	-0.23
196.347	-0.33
196.82	3.92
197.292	-0.33
197.765	0.07
198.237	-2.13
198.71	-5.03
199.182	-3.98
199.655	1.92
200.127	3.67
200.6	0.92
201.072	2.92
201.544	-1.48
202.017	0.07
202.489	1.47
202.961	-3.83
203.433	-0.33
203.906	-0.38
204.378	2.57
204.85	1.72
205.322	3.57
205.794	6.72
206.266	4.57
206.739	5.07
207.211	0.37
207.683	0.07
208.155	7.07
208.627	7.87
209.099	7.17
209.57	2.52
210.042	6.72
210.514	5.27
210.986	13.77
211.458	22.42
211.93	11.97
212.402	6.07
212.873	-3.38
213.345	-0.88
213.817	1.67
214.288	0.47
214.76	4.32
215.232	2.47
215.703	6.87
216.175	2.62
216.646	2.32
217.118	5.47
217.589	-0.58
218.061	2.02
218.532	-0.63
219.004	7.27
219.475	12.97
219.946	30.42
220.418	35.07
220.889	22.37
221.36	13.47
221.832	8.62
222.303	9.02
222.774	4.42
223.245	6.17
223.717	4.87
224.188	11.57
224.659	7.07
225.13	4.87
225.601	2.87
226.072	7.72
226.543	11.27
227.014	8.27
227.485	11.62
227.956	16.07
228.427	16.37
228.898	13.82
229.369	12.87
229.839	8.27
230.31	16.27
230.781	13.57
231.252	21.97
231.722	31.77
232.193	36.17
232.664	37.17
233.135	55.67
233.605	58.72
234.076	43.77
234.546	39.87
235.017	45.92
235.487	40.37
235.958	41.32
236.428	65.17
236.899	104.97
237.369	116.62
237.84	87.52
238.31	104.52
238.78	105.42
239.251	105.22
239.721	103.52
240.191	83.52
240.662	52.07
241.132	44.47
241.602	49.32
242.072	75.02
242.542	85.97
243.013	61.72
243.483	52.62
243.953	43.12
244.423	45.67
244.893	49.87
245.363	62.12
245.833	52.37
246.303	58.42
246.773	78.47
247.243	79.27
247.712	94.27
248.182	109.72
248.652	112.17
249.122	166.62
249.592	309.07
250.061	464.92
250.531	750.57
251.001	568.97
251.471	471.82
251.94	354.82
252.41	192.97
252.879	135.67
253.349	107.67
253.818	86.67
254.288	73.77
254.757	78.42
255.227	104.17
255.696	78.87
256.166	73.32
256.635	78.62
257.105	101.32
257.574	127.57
258.043	135.52
258.513	232.17
258.982	298.92
259.451	204.12
259.92	206.67
260.389	189.47
260.859	138.47
261.328	164.77
261.797	235.12
262.266	203.97
262.735	95.92
263.204	63.67
263.673	57.72
264.142	47.82
264.611	53.32
265.08	61.97
265.549	67.47
266.018	54.37
266.487	52.42
266.955	53.07
267.424	63.02
267.893	64.12
268.362	67.52
268.83	62.07
269.299	65.22
269.768	78.92
270.236	88.47
270.705	97.62
271.174	91.02
271.642	104.97
272.111	123.92
272.579	191.62
273.048	293.87
273.516	366.97
273.985	374.92
274.453	290.57
274.922	175.27
275.39	108.52
275.858	106.47
276.327	85.97
276.795	91.32
277.263	102.42
277.731	133.47
278.2	253.87
278.668	332.57
279.136	255.92
279.604	165.67
280.072	105.62
280.54	96.02
281.008	95.17
281.477	93.57
281.945	101.47
282.413	97.97
282.881	99.67
283.348	101.77
283.816	106.87
284.284	118.17
284.752	111.92
285.22	115.22
285.688	124.82
286.156	196.87
286.623	527.67
287.091	1049.47
287.559	545.12
288.026	214.32
288.494	139.47
288.962	114.37
289.429	112.62
289.897	109.02
290.364	99.42
290.832	94.92
291.3	106.67
291.767	111.62
292.234	110.87
292.702	115.42
293.169	121.27
293.637	132.22
294.104	123.12
294.571	118.12
295.039	120.82
295.506	121.07
295.973	124.92
296.44	116.37
296.908	134.97
297.375	150.27
297.842	147.77
298.309	127.92
298.776	123.97
299.243	130.72
299.71	119.52
300.177	129.07
300.644	138.67
301.111	150.97
301.578	138.37
302.045	130.77
302.512	126.32
302.979	134.07
303.446	140.27
303.913	144.02
304.379	153.87
304.846	174.97
305.313	189.87
305.78	217.87
306.246	263.32
306.713	282.62
307.18	244.97
307.646	267.92
308.113	235.22
308.579	188.47
309.046	186.67
309.512	190.07
309.979	171.87
310.445	164.57
310.912	167.32
311.378	166.67
311.845	170.07
312.311	166.62
312.777	164.17
313.244	169.72
313.71	179.57
314.176	199.17
314.642	220.67
315.109	264.02
315.575	237.37
316.041	222.42
316.507	210.12
316.973	233.32
317.439	224.27
317.905	246.72
318.371	244.27
318.837	230.27
319.303	239.57
319.769	223.12
320.235	246.22
320.701	282.67
321.167	306.62
321.633	361.32
322.099	504.37
322.564	672.92
323.03	523.87
323.496	370.02
323.962	353.92
324.427	325.87
324.893	289.67
325.359	277.17
325.824	244.82
326.29	255.52
326.755	262.12
327.221	260.37
327.686	270.47
328.152	253.27
328.617	231.47
329.083	236.87
329.548	255.67
330.014	262.27
330.479	281.02
330.944	326.37
331.41	378.22
331.875	360.07
332.34	370.37
332.805	428.87
333.271	540.17
333.736	721.37
334.201	639.77
334.666	479.72
335.131	549.07
335.596	429.97
336.061	459.77
336.526	461.77
336.991	408.37
337.456	436.92
337.921	348.52
338.386	283.52
338.851	267.87
339.316	249.32
339.781	240.37
340.246	248.27
340.711	247.12
341.175	253.72
341.64	263.62
342.105	262.92
342.569	274.62
343.034	294.22
343.499	306.02
343.963	294.22
344.428	290.52
344.893	292.47
345.357	305.87
345.822	297.97
346.286	301.37
346.751	319.12
347.215	307.32
347.679	319.27
348.144	346.42
348.608	339.42
349.073	352.17
349.537	381.87
350.001	380.82
350.465	354.37
350.93	345.12
351.394	337.97
351.858	344.47
352.322	353.97
352.786	361.02
353.25	348.37
353.715	354.72
354.179	372.92
354.643	385.87
355.107	401.77
355.571	421.97
356.035	435.17
356.498	416.02
356.962	440.62
357.426	427.47
357.89	401.02
358.354	377.87
358.818	369.87
359.281	384.12
359.745	402.22
360.209	390.82
360.673	397.32
361.136	403.17
361.6	401.82
362.064	425.57
362.527	427.87
362.991	432.27
363.454	427.32
363.918	431.62
364.381	431.47
364.845	426.37
365.308	410.07
365.772	422.72
366.235	417.22
366.698	441.22
367.162	530.82
367.625	587.07
368.088	474.32
368.552	438.77
369.015	444.07
369.478	475.67
369.941	477.47
370.404	486.57
370.867	516.72
371.331	524.92
371.794	533.82
372.257	587.62
372.72	615.07
373.183	591.27
373.646	607.12
374.109	596.42
374.572	695.77
375.035	813.57
375.497	622.72
375.96	505.87
376.423	485.12
376.886	484.97
377.349	495.67
377.811	491.22
378.274	504.67
378.737	516.52
379.199	525.82
379.662	531.77
380.125	569.97
380.587	631.02
381.05	664.67
381.512	660.22
381.975	648.22
382.437	636.82
382.9	637.57
383.362	634.92
383.825	688.52
384.287	848.02
384.75	941.52
385.212	833.62
385.674	695.12
386.136	630.67
386.599	631.32
387.061	658.27
387.523	677.17
387.985	691.07
388.447	705.12
388.91	783.67
389.372	935.67
389.834	888.47
390.296	749.67
390.758	760.97
391.22	780.27
391.682	953.27
392.144	1459.17
392.606	1365.12
393.068	819.62
393.529	750.82
393.991	732.62
394.453	708.57
394.915	748.62
395.377	898.07
395.838	1103.57
396.3	798.97
396.762	626.77
397.224	601.07
397.685	593.52
398.147	595.72
398.608	605.42
399.07	603.87
399.531	601.32
399.993	613.12
400.454	623.22
400.916	620.77
401.377	638.27
401.839	639.97
402.3	638.82
402.762	676.12
403.223	742.02
403.684	754.22
404.145	690.77
404.607	671.52
405.068	678.32
405.529	686.02
405.99	699.82
406.451	704.92
406.913	688.17
407.374	701.67
407.835	708.52
408.296	721.42
408.757	731.57
409.218	757.37
409.679	759.07
410.14	774.37
410.601	797.07
411.062	839.47
411.522	954.47
411.983	1047.87
412.444	915.72
412.905	804.62
413.366	809.17
413.826	834.67
414.287	926.07
414.748	1108.12
415.208	1135.92
415.669	952.42
416.13	860.27
416.59	844.72
417.051	879.72
417.511	912.92
417.972	986.37
418.432	1055.62
418.893	1190.07
419.353	1124.97
419.814	861.87
420.274	776.52
420.734	766.52
421.195	817.17
421.655	848.37
422.115	824.42
422.576	790.17
423.036	795.47
423.496	831.42
423.956	876.32
424.416	934.97
424.876	1053.37
425.336	1058.37
425.797	1037.92
426.257	1036.52
426.717	968.32
427.177	913.97
427.637	933.87
428.097	972.47
428.556	1023.32
429.016	1104.92
429.476	1101.47
429.936	1059.52
430.396	1029.02
430.856	1041.97
431.315	1069.92
431.775	1158.67
432.235	1219.12
432.694	1235.07
433.154	1161.47
433.614	1133.12
434.073	1089.62
434.533	993.72
434.993	964.32
435.452	971.52
435.912	957.57
436.371	944.32
436.83	958.62
437.29	969.57
437.749	922.07
438.209	903.92
438.668	924.12
439.127	928.72
439.587	908.37
440.046	877.57
440.505	893.52
440.964	902.47
441.424	929.82
441.883	943.47
442.342	887.37
442.801	857.57
443.26	878.17
443.719	868.17
444.178	859.72
444.637	876.42
445.096	886.47
445.555	893.72
446.014	892.82
446.473	870.57
446.932	865.82
447.391	879.92
447.849	901.47
448.308	892.72
448.767	909.22
449.226	933.67
449.685	932.37
450.143	977.02
450.602	983.77
451.061	940.02
451.519	951.67
451.978	973.67
452.436	996.12
452.895	955.27
453.353	927.72
453.812	941.77
454.27	931.07
454.729	908.12
455.187	908.62
455.646	924.22
456.104	932.82
456.562	923.82
457.021	916.77
457.479	878.22
457.937	912.22
458.395	937.22
458.854	918.02
459.312	901.22
459.77	911.02
460.228	924.72
460.686	943.12
461.144	952.07
461.602	921.97
462.06	933.47
462.518	950.12
462.976	950.27
463.434	954.57
463.892	973.32
464.35	984.17
464.808	1005.37
465.266	1016.22
465.724	1023.27
466.181	1035.77
466.639	1025.47
467.097	1067.67
467.555	1109.52
468.012	1100.27
468.47	1105.87
468.928	1150.37
469.385	1176.67
469.843	1181.42
470.3	1179.32
470.758	1219.67
471.215	1231.72
471.673	1249.32
472.13	1294.57
472.588	1323.32
473.045	1302.27
473.503	1335.12
473.96	1387.52
474.417	1399.47
474.875	1467.82
475.332	1519.82
475.789	1548.57
476.246	1595.72
476.704	1649.37
477.161	1695.92
477.618	1745.72
478.075	1833.72
478.532	1981.22
478.989	2122.87
479.446	2325.72
479.903	2461.12
480.36	2670.22
480.817	2843.37
481.274	3019.72
481.731	3309.27
482.188	3560.47
482.645	3841.27
483.102	4063.67
483.558	4351.57
484.015	4579.57
484.472	4565.67
484.929	4436.82
485.385	4255.62
485.842	4154.42
486.299	3952.47
486.755	3592.67
487.212	3227.67
487.668	2932.82
488.125	2717.02
488.582	2507.42
489.038	2414.97
489.494	2347.22
489.951	2284.27
490.407	2229.32
490.864	2199.32
491.32	2143.97
491.776	2122.12
492.233	2132.07
492.689	2100.12
493.145	2074.47
493.602	2047.57
494.058	2096.07
494.514	2127.27
494.97	2131.77
495.426	2160.52
495.882	2168.77
496.338	2183.12
496.794	2248.97
497.251	2260.92
497.707	2274.12
498.163	2276.12
498.618	2273.52
499.074	2292.77
499.53	2331.87
499.986	2380.82
500.442	2393.07
500.898	2398.52
501.354	2445.37
501.809	2442.92
502.265	2478.92
502.721	2600.57
503.177	2666.57
503.632	2543.32
504.088	2561.32
504.543	2795.87
504.999	2623.67
505.455	2324.82
505.91	2221.77
506.366	2201.72
506.821	2189.32
507.277	2182.27
507.732	2190.52
508.187	2182.32
508.643	2202.72
509.098	2191.02
509.553	2233.32
510.009	2261.22
510.464	2305.87
510.919	2315.47
511.375	2350.02
511.83	2382.07
512.285	2413.92
512.74	2463.37
513.195	2512.82
513.65	2553.87
514.105	2586.32
514.56	2612.52
515.015	2664.07
515.47	2677.92
515.925	2677.22
516.38	2667.17
516.835	2648.57
517.29	2669.22
517.745	2667.12
518.2	2606.27
518.655	2533.42
519.109	2513.42
519.564	2482.17
520.019	2463.17
520.474	2432.27
520.928	2411.02
521.383	2409.47
521.838	2408.67
522.292	2372.47
522.747	2342.07
523.201	2332.32
523.656	2295.12
524.11	2293.27
524.565	2294.62
525.019	2302.52
525.474	2311.12
525.928	2304.22
526.382	2284.02
526.837	2262.57
527.291	2281.42
527.745	2263.12
528.2	2258.52
528.654	2239.22
529.108	2244.42
529.562	2245.87
530.016	2245.07
530.47	2264.77
530.925	2260.92
531.379	2265.67
531.833	2291.22
532.287	2283.82
532.741	2263.97
533.195	2269.17
533.649	2265.52
534.103	2267.67
534.556	2249.57
535.01	2278.12
535.464	2259.22
535.918	2288.07
536.372	2280.42
536.826	2270.77
537.279	2251.52
537.733	2263.77
538.187	2266.02
538.64	2260.27
539.094	2299.42
539.548	2321.92
540.001	2303.67
540.455	2320.47
540.908	2337.17
541.362	2360.97
541.815	2373.82
542.269	2421.32
542.722	2412.97
543.175	2441.87
543.629	2442.87
544.082	2479.12
544.536	2508.62
544.989	2501.87
545.442	2519.72
545.895	2530.62
546.349	2519.37
546.802	2521.87
547.255	2518.77
547.708	2538.52
548.161	2567.37
548.614	2563.37
549.067	2573.92
549.52	2554.72
549.973	2529.02
550.426	2522.62
550.879	2500.17
551.332	2493.12
551.785	2515.97
552.238	2546.92
552.691	2543.62
553.144	2575.12
553.596	2616.27
554.049	2648.82
554.502	2707.92
554.955	2765.32
555.407	2791.97
555.86	2757.57
556.313	2728.27
556.765	2700.52
557.218	2666.12
557.67	2682.02
558.123	2638.17
558.576	2615.87
559.028	2622.77
559.48	2656.22
559.933	2628.22
560.385	2549.37
560.838	2461.12
561.29	2396.27
561.742	2390.62
562.195	2325.47
562.647	2314.82
563.099	2325.82
563.551	2301.97
564.004	2331.02
564.456	2300.92
564.908	2263.42
565.36	2209.47
565.812	2174.32
566.264	2139.97
566.716	2123.77
567.168	2087.67
567.62	2095.22
568.072	2069.47
568.524	2054.22
568.976	2042.07
569.428	2034.97
569.88	2024.52
570.332	2033.72
570.784	2030.07
571.235	2010.62
571.687	2033.67
572.139	2033.02
572.59	2050.92
573.042	2059.47
573.494	2067.27
573.945	2035.22
574.397	1995.17
574.849	1993.87
575.3	2001.52
575.752	1969.42
576.203	1958.27
576.655	1959.12
577.106	1946.47
577.557	1922.27
578.009	1920.42
578.46	1919.27
578.912	1907.52
579.363	1926.62
579.814	1915.97
580.265	1909.92
580.717	1912.52
581.168	1903.47
581.619	1917.52
582.07	1934.97
582.521	1935.52
582.972	1932.87
583.423	1946.17
583.875	1993.52
584.326	2082.82
584.777	2252.07
585.227	2449.47
585.678	2589.27
586.129	2654.57
586.58	2699.57
587.031	2745.02
587.482	2910.92
587.933	3391.22
588.384	3134.67
588.834	2596.02
589.285	2221.12
589.736	2185.17
590.186	2188.57
590.637	2165.97
591.088	2116.32
591.538	2085.07
591.989	2068.97
592.439	2055.07
592.89	2032.97
593.34	2040.37
593.791	2047.47
594.241	2053.37
594.692	2096.12
595.142	2065.02
595.593	2044.57
596.043	2027.72
596.493	2068.57
596.943	2122.82
597.394	2087.72
597.844	2071.22
598.294	2103.37
598.744	2160.02
599.195	2271.57
599.645	2411.42
600.095	2516.37
600.545	2642.27
600.995	2755.87
601.445	2860.12
601.895	3010.22
602.345	3098.77
602.795	3039.12
603.245	2909.42
603.695	2734.87
604.145	2576.12
604.594	2467.12
605.044	2341.37
605.494	2194.77
605.944	2079.57
606.393	2026.37
606.843	2010.57
607.293	2011.42
607.743	2007.82
608.192	2017.32
608.642	2019.47
609.091	2027.47
609.541	2026.27
609.99	2010.52
610.44	1973.57
610.889	1945.82
611.339	1938.72
611.788	1911.62
612.238	1939.17
612.687	1952.77
613.136	1976.92
613.586	2007.87
614.035	2002.67
614.484	2035.27
614.933	2038.87
615.383	1993.67
615.832	1933.62
616.281	1896.72
616.73	1846.42
617.179	1790.27
617.628	1759.02
618.077	1725.27
618.526	1699.57
618.975	1687.47
619.424	1650.22
619.873	1673.92
620.322	1649.82
620.771	1650.92
621.22	1624.42
621.669	1588.32
622.118	1568.72
622.567	1565.42
623.015	1541.57
623.464	1528.87
623.913	1509.97
624.361	1502.77
624.81	1503.52
625.259	1506.97
625.707	1491.07
626.156	1499.92
626.604	1511.12
627.053	1516.97
627.501	1506.12
627.95	1511.82
628.398	1548.67
628.847	1522.87
629.295	1522.82
629.744	1551.27
630.192	1585.37
630.64	1690.62
631.089	1839.52
631.537	1927.27
631.985	1908.12
632.433	2005.57
632.881	1993.57
633.33	2389.37
633.778	2594.67
634.226	1852.22
634.674	1716.92
635.122	1701.67
635.57	1739.72
636.018	2015.27
636.466	1648.27
636.914	1484.77
637.362	1474.87
637.81	1497.87
638.258	1538.52
638.705	1554.32
639.153	1589.77
639.601	1610.07
640.049	1632.82
640.497	1681.62
640.944	1725.67
641.392	1645.12
641.84	1544.67
642.287	1486.27
642.735	1453.82
643.182	1444.37
643.63	1447.72
644.078	1447.07
644.525	1470.92
644.973	1508.37
645.42	1524.27
645.867	1532.62
646.315	1564.32
646.762	1629.57
647.21	1663.32
647.657	1750.82
648.104	1807.67
648.551	1856.17
648.999	2006.72
649.446	2195.32
649.893	2454.77
650.34	2858.27
650.787	3522.67
651.234	4549.72
651.682	6318.82
652.129	8962.52
652.576	12780.42
653.023	15536.92
653.47	15540.12
653.917	15540.17
654.363	15540.07
654.81	15537.07
655.257	15537.72
655.704	15525.42
656.151	9825.27
656.598	6390.42
657.044	4582.47
657.491	3581.47
657.938	2905.57
658.385	2496.12
658.831	2203.07
659.278	1978.82
659.724	1816.62
660.171	1699.12
660.618	1578.77
661.064	1492.17
661.511	1445.82
661.957	1397.32
662.404	1373.67
662.85	1364.27
663.296	1345.42
663.743	1316.12
664.189	1308.62
664.635	1299.67
665.082	1277.42
665.528	1247.27
665.974	1229.17
666.42	1222.42
666.867	1235.42
667.313	1240.77
667.759	1280.37
668.205	1277.87
668.651	1287.42
669.097	1256.42
669.543	1363.87
669.989	1295.12
670.435	1147.82
670.881	1143.97
671.327	1190.52
671.773	1271.27
672.219	1364.72
672.665	1460.12
673.11	1506.47
673.556	1516.57
674.002	1558.22
674.448	1587.82
674.893	1339.67
675.339	1176.57
675.785	1080.32
676.23	1032.47
676.676	995.27
677.122	969.72
677.567	938.77
678.013	908.67
678.458	916.97
678.904	901.47
679.349	893.82
679.794	897.87
680.24	900.22
680.685	882.62
681.131	885.62
681.576	892.42
682.021	892.07
682.466	894.77
682.912	909.82
683.357	954.87
683.802	1028.62
684.247	1130.37
684.692	1208.07
685.137	1253.97
685.583	1274.32
686.028	1343.57
686.473	1276.77
686.918	1096.42
687.363	998.07
687.807	955.72
688.252	915.52
688.697	871.27
689.142	852.62
689.587	860.67
690.032	875.22
690.477	907.27
690.921	953.17
691.366	993.07
691.811	1037.47
692.255	1125.42
692.7	1379.62
693.145	1993.97
693.589	3026.67
694.034	3594.82
694.478	3834.82
694.923	3496.67
695.367	5015.17
695.812	3006.17
696.256	1267.67
696.701	929.72
697.145	870.17
697.59	831.52
698.034	824.87
698.478	832.42
698.922	836.97
699.367	852.27
699.811	901.02
700.255	975.47
700.699	1062.52
701.143	1147.67
701.588	1206.12
702.032	1261.77
702.476	1297.42
702.92	1371.67
703.364	1805.17
703.808	2774.12
704.252	3455.92
704.696	3624.62
705.14	3426.32
705.584	4737.72
706.027	2601.87
706.471	1311.82
706.915	974.07
707.359	874.37
707.803	817.72
708.246	788.42
708.69	785.97
709.134	775.47
709.577	776.67
710.021	792.92
710.465	779.17
710.908	780.57
711.352	812.67
711.795	898.17
712.239	965.02
712.682	989.97
713.126	977.97
713.569	1095.12
714.012	899.37
714.456	796.17
714.899	745.62
715.342	696.37
715.786	674.62
716.229	650.32
716.672	635.02
717.115	640.12
717.558	646.22
718.002	664.92
718.445	697.17
718.888	734.42
719.331	741.37
719.774	762.12
720.217	740.62
720.66	698.07
721.103	666.12
721.546	630.22
721.989	614.77
722.432	605.07
722.874	602.92
723.317	617.77
723.76	667.77
724.203	818.37
724.645	1088.47
725.088	1281.97
725.531	1247.87
725.974	1374.92
726.416	1231.72
726.859	765.02
727.301	630.17
727.744	600.57
728.187	604.37
728.629	616.32
729.071	647.62
729.514	671.12
729.956	690.12
730.399	705.52
730.841	701.37
731.283	685.87
731.726	668.47
732.168	674.42
732.61	709.37
733.053	772.07
733.495	848.72
733.937	949.12
734.379	1120.87
734.821	1430.32
735.263	2299.47
735.705	4120.87
736.148	6013.07
736.59	5969.92
737.032	6502.12
737.474	5338.02
737.916	2028.72
738.357	1070.47
738.799	827.57
739.241	767.87
739.683	768.22
740.125	782.22
740.567	782.17
741.008	820.52
741.45	861.92
741.892	882.12
