Data from MSPlasma+Separation6_Subt14_10-15-28-116.txt Node
Date: Fri Jul 21 10:15:28 EDT 2017
User: Ender
Spectrometer: HR+D1039
Trigger mode: 0
Integration Time (sec): 2.510000E-3
Scans to average: 20
Electric dark correction enabled: true
Nonlinearity correction enabled: false
Boxcar width: 0
XAxis mode: Wavelengths
Number of Pixels in Spectrum: 2048
>>>>>Begin Spectral Data<<<<<
187.836	-1.94
188.309	-1.94
188.782	-1.94
189.255	-0.79
189.728	5.51
190.201	-0.19
190.674	0.66
191.147	-3.29
191.619	0.91
192.092	-0.24
192.565	-0.34
193.038	1.46
193.511	1.91
193.984	0.16
194.456	0.11
194.929	0.21
195.402	-1.14
195.874	-2.99
196.347	-1.09
196.82	1.81
197.292	-2.44
197.765	1.31
198.237	-1.74
198.71	-4.19
199.182	2.36
199.655	1.71
200.127	3.26
200.6	-0.09
201.072	3.01
201.544	-0.79
202.017	-0.49
202.489	0.46
202.961	-1.34
203.433	-5.14
203.906	-1.44
204.378	3.61
204.85	-2.24
205.322	0.06
205.794	1.26
206.266	-3.34
206.739	2.71
207.211	-2.69
207.683	0.86
208.155	1.36
208.627	1.41
209.099	3.26
209.57	2.91
210.042	0.36
210.514	0.16
210.986	1.81
211.458	8.11
211.93	3.46
212.402	1.16
212.873	-2.09
213.345	-3.94
213.817	2.31
214.288	-1.59
214.76	3.56
215.232	1.66
215.703	-5.84
216.175	0.61
216.646	4.46
217.118	1.21
217.589	-4.64
218.061	0.91
218.532	-0.34
219.004	3.46
219.475	6.06
219.946	9.76
220.418	14.31
220.889	11.21
221.36	8.41
221.832	4.26
222.303	3.96
222.774	5.31
223.245	-0.19
223.717	-0.84
224.188	4.01
224.659	6.21
225.13	-0.09
225.601	-1.09
226.072	0.61
226.543	4.41
227.014	5.16
227.485	1.66
227.956	1.86
228.427	8.16
228.898	3.26
229.369	4.41
229.839	0.56
230.31	6.16
230.781	2.01
231.252	6.11
231.722	6.96
232.193	10.31
232.664	15.96
233.135	24.76
233.605	28.51
234.076	20.96
234.546	14.96
235.017	20.76
235.487	14.06
235.958	17.41
236.428	31.41
236.899	42.46
237.369	52.91
237.84	37.86
238.31	51.61
238.78	44.31
239.251	46.46
239.721	44.31
240.191	34.66
240.662	22.86
241.132	20.06
241.602	24.81
242.072	31.41
242.542	34.21
243.013	26.46
243.483	25.81
243.953	12.41
244.423	15.46
244.893	16.36
245.363	31.66
245.833	22.91
246.303	23.56
246.773	35.56
247.243	36.46
247.712	38.96
248.182	46.66
248.652	52.06
249.122	79.71
249.592	145.01
250.061	210.06
250.531	346.61
251.001	259.71
251.471	221.26
251.94	166.36
252.41	86.06
252.879	60.56
253.349	49.51
253.818	36.06
254.288	33.21
254.757	33.86
255.227	45.61
255.696	32.71
256.166	32.21
256.635	31.66
257.105	44.46
257.574	55.81
258.043	57.31
258.513	108.31
258.982	137.41
259.451	94.31
259.92	98.81
260.389	87.41
260.859	64.61
261.328	77.51
261.797	113.76
262.266	101.46
262.735	46.71
263.204	20.96
263.673	25.46
264.142	17.06
264.611	23.16
265.08	23.96
265.549	25.51
266.018	22.51
266.487	22.21
266.955	25.81
267.424	29.16
267.893	29.06
268.362	24.16
268.83	25.86
269.299	25.51
269.768	30.31
270.236	39.21
270.705	42.91
271.174	40.16
271.642	45.26
272.111	50.56
272.579	88.51
273.048	136.31
273.516	173.76
273.985	175.91
274.453	131.96
274.922	78.96
275.39	46.46
275.858	46.06
276.327	36.26
276.795	40.46
277.263	41.16
277.731	60.41
278.2	109.61
278.668	153.31
279.136	120.11
279.604	72.81
280.072	42.46
280.54	39.56
281.008	39.01
281.477	38.26
281.945	38.91
282.413	41.21
282.881	42.51
283.348	40.16
283.816	45.36
284.284	49.16
284.752	47.21
285.22	50.76
285.688	55.06
286.156	89.46
286.623	248.76
287.091	495.96
287.559	258.41
288.026	101.51
288.494	67.31
288.962	51.56
289.429	48.11
289.897	42.76
290.364	38.66
290.832	40.91
291.3	40.16
291.767	44.81
292.234	44.01
292.702	45.81
293.169	53.76
293.637	55.41
294.104	56.56
294.571	48.86
295.039	50.66
295.506	48.46
295.973	53.11
296.44	48.76
296.908	57.61
297.375	68.31
297.842	69.71
298.309	56.16
298.776	56.91
299.243	56.81
299.71	53.41
300.177	53.56
300.644	59.41
301.111	63.16
301.578	59.76
302.045	53.16
302.512	54.36
302.979	58.16
303.446	66.31
303.913	59.51
304.379	66.36
304.846	75.16
305.313	85.91
305.78	101.21
306.246	118.71
306.713	128.61
307.18	109.86
307.646	122.21
308.113	104.51
308.579	87.91
309.046	89.16
309.512	82.41
309.979	77.76
310.445	71.06
310.912	74.56
311.378	73.96
311.845	73.06
312.311	69.31
312.777	70.81
313.244	74.41
313.71	77.11
314.176	86.11
314.642	95.51
315.109	115.96
315.575	107.21
316.041	96.41
316.507	92.26
316.973	100.21
317.439	98.21
317.905	114.16
318.371	108.56
318.837	103.41
319.303	106.56
319.769	96.01
320.235	109.01
320.701	125.61
321.167	138.76
321.633	164.11
322.099	226.26
322.564	315.71
323.03	240.56
323.496	167.36
323.962	155.61
324.427	156.26
324.893	130.71
325.359	124.26
325.824	110.71
326.29	120.96
326.755	112.31
327.221	114.01
327.686	123.56
328.152	106.61
328.617	106.31
329.083	106.36
329.548	110.31
330.014	115.61
330.479	121.81
330.944	147.56
331.41	171.56
331.875	159.41
332.34	171.81
332.805	191.11
333.271	246.86
333.736	336.21
334.201	298.06
334.666	224.66
335.131	252.66
335.596	202.96
336.061	206.61
336.526	212.91
336.991	184.51
337.456	202.16
337.921	157.16
338.386	132.11
338.851	112.06
339.316	106.71
339.781	107.51
340.246	107.66
340.711	106.96
341.175	106.66
341.64	109.61
342.105	117.66
342.569	123.26
343.034	127.76
343.499	134.21
343.963	131.76
344.428	130.86
344.893	131.66
345.357	138.16
345.822	130.46
346.286	137.66
346.751	136.51
347.215	133.11
347.679	141.46
348.144	158.51
348.608	145.16
349.073	155.31
349.537	178.61
350.001	161.46
350.465	160.81
350.93	153.36
351.394	154.36
351.858	149.76
352.322	156.41
352.786	158.61
353.25	160.26
353.715	157.31
354.179	171.41
354.643	174.21
355.107	180.76
355.571	186.76
356.035	192.91
356.498	185.76
356.962	198.11
357.426	194.66
357.89	176.46
358.354	168.26
358.818	168.01
359.281	166.11
359.745	179.56
360.209	178.36
360.673	176.91
361.136	184.81
361.6	177.16
362.064	188.86
362.527	195.06
362.991	195.81
363.454	192.36
363.918	195.51
364.381	194.91
364.845	191.76
365.308	181.01
365.772	187.01
366.235	186.51
366.698	197.86
367.162	236.16
367.625	266.36
368.088	219.06
368.552	193.46
369.015	198.56
369.478	214.86
369.941	214.56
370.404	223.66
370.867	234.71
371.331	240.01
371.794	237.31
372.257	269.06
372.72	294.71
373.183	277.36
373.646	276.41
374.109	273.96
374.572	323.56
375.035	378.41
375.497	281.61
375.96	229.66
376.423	218.36
376.886	223.46
377.349	219.36
377.811	223.61
378.274	228.41
378.737	233.56
379.199	232.61
379.662	237.81
380.125	254.86
380.587	284.81
381.05	302.86
381.512	302.06
381.975	294.86
382.437	290.31
382.9	286.06
383.362	292.21
383.825	309.91
384.287	388.91
384.75	437.81
385.212	389.36
385.674	319.46
386.136	290.21
386.599	290.26
387.061	292.31
387.523	312.66
387.985	310.91
388.447	321.46
388.91	369.11
389.372	444.81
389.834	419.66
390.296	340.66
390.758	344.91
391.22	354.11
391.682	435.51
392.144	674.61
392.606	632.61
393.068	373.16
393.529	346.16
393.991	337.01
394.453	326.66
394.915	347.51
395.377	409.26
395.838	508.81
396.3	365.61
396.762	280.76
397.224	268.71
397.685	262.76
398.147	270.66
398.608	267.56
399.07	270.56
399.531	268.56
399.993	272.01
400.454	275.01
400.916	272.71
401.377	283.61
401.839	280.36
402.3	280.16
402.762	297.51
403.223	333.26
403.684	336.51
404.145	309.56
404.607	302.11
405.068	300.91
405.529	310.61
405.99	307.76
406.451	319.41
406.913	308.11
407.374	315.86
407.835	315.76
408.296	331.66
408.757	331.16
409.218	338.41
409.679	340.31
410.14	342.96
410.601	356.46
411.062	379.06
411.522	436.16
411.983	479.01
412.444	408.31
412.905	356.51
413.366	359.71
413.826	369.86
414.287	413.66
414.748	476.06
415.208	486.76
415.669	413.61
416.13	381.36
416.59	369.81
417.051	379.06
417.511	396.76
417.972	428.41
418.432	461.21
418.893	510.06
419.353	486.76
419.814	377.66
420.274	345.86
420.734	334.01
421.195	360.06
421.655	379.66
422.115	366.06
422.576	354.06
423.036	349.56
423.496	366.71
423.956	382.36
424.416	412.56
424.876	463.11
425.336	459.21
425.797	463.31
426.257	461.76
426.717	434.71
427.177	410.61
427.637	421.61
428.097	448.76
428.556	466.96
429.016	509.11
429.476	510.21
429.936	491.26
430.396	477.16
430.856	488.26
431.315	504.06
431.775	541.36
432.235	566.86
432.694	576.36
433.154	545.56
433.614	529.51
434.073	512.21
434.533	462.81
434.993	444.06
435.452	445.41
435.912	433.26
436.371	427.26
436.83	431.86
437.29	433.56
437.749	410.31
438.209	406.71
438.668	410.71
439.127	411.41
439.587	400.36
440.046	387.41
440.505	391.06
440.964	383.51
441.424	405.46
441.883	417.11
442.342	391.81
442.801	373.01
443.26	386.71
443.719	382.06
444.178	373.71
444.637	375.96
445.096	378.76
445.555	389.01
446.014	386.31
446.473	375.36
446.932	376.01
447.391	378.61
447.849	387.01
448.308	383.61
448.767	391.66
449.226	402.26
449.685	406.36
450.143	424.71
450.602	422.26
451.061	406.36
451.519	410.61
451.978	426.41
452.436	434.91
452.895	417.76
453.353	400.01
453.812	413.16
454.27	397.61
454.729	390.76
455.187	392.16
455.646	403.86
456.104	398.51
456.562	400.76
457.021	389.76
457.479	379.51
457.937	386.41
458.395	394.66
458.854	394.76
459.312	385.11
459.77	392.46
460.228	396.06
460.686	399.06
461.144	405.81
461.602	393.86
462.06	400.16
462.518	406.76
462.976	399.51
463.434	408.46
463.892	417.31
464.35	425.16
464.808	429.51
465.266	431.56
465.724	440.76
466.181	437.16
466.639	429.61
467.097	455.51
467.555	473.71
468.012	474.01
468.47	469.36
468.928	484.86
469.385	498.16
469.843	502.81
470.3	505.81
470.758	514.61
471.215	527.26
471.673	533.16
472.13	556.36
472.588	571.86
473.045	571.61
473.503	575.11
473.96	604.66
474.417	608.01
474.875	637.36
475.332	667.66
475.789	672.06
476.246	694.11
476.704	730.16
477.161	746.26
477.618	772.96
478.075	824.46
478.532	888.06
478.989	963.26
479.446	1072.21
479.903	1137.51
480.36	1261.01
480.817	1346.01
481.274	1454.01
481.731	1606.91
482.188	1743.61
482.645	1882.56
483.102	2012.76
483.558	2139.86
484.015	2269.01
484.472	2275.71
484.929	2208.96
485.385	2109.31
485.842	2036.46
486.299	1932.11
486.755	1742.96
487.212	1540.76
487.668	1384.31
488.125	1256.31
488.582	1151.26
489.038	1098.16
489.494	1054.46
489.951	1015.31
490.407	976.61
490.864	958.11
491.32	947.51
491.776	923.16
492.233	920.96
492.689	906.21
493.145	894.31
493.602	883.86
494.058	903.61
494.514	909.91
494.97	907.11
495.426	929.91
495.882	926.51
496.338	923.86
496.794	959.61
497.251	970.01
497.707	971.76
498.163	964.61
498.618	962.21
499.074	977.11
499.53	993.76
499.986	1013.36
500.442	1019.96
500.898	1019.66
501.354	1040.51
501.809	1035.31
502.265	1050.96
502.721	1110.76
503.177	1139.86
503.632	1079.46
504.088	1086.76
504.543	1191.21
504.999	1113.86
505.455	981.21
505.91	935.41
506.366	920.06
506.821	922.81
507.277	906.76
507.732	919.21
508.187	917.11
508.643	919.51
509.098	932.21
509.553	934.66
510.009	943.91
510.464	950.66
510.919	970.16
511.375	979.06
511.83	989.46
512.285	1010.01
512.74	1031.11
513.195	1048.46
513.65	1067.66
514.105	1071.21
514.56	1078.51
515.015	1100.06
515.47	1123.76
515.925	1118.21
516.38	1102.96
516.835	1109.56
517.29	1102.21
517.745	1113.86
518.2	1087.76
518.655	1061.91
519.109	1043.31
519.564	1028.36
520.019	1028.16
520.474	1011.91
520.928	1004.21
521.383	1001.81
521.838	1000.56
522.292	986.81
522.747	975.46
523.201	983.26
523.656	961.46
524.11	961.21
524.565	958.81
525.019	964.36
525.474	966.01
525.928	967.81
526.382	953.46
526.837	948.86
527.291	947.31
527.745	942.11
528.2	945.01
528.654	938.21
529.108	939.66
529.562	939.96
530.016	940.31
530.47	936.66
530.925	938.41
531.379	944.06
531.833	955.61
532.287	940.76
532.741	942.76
533.195	937.11
533.649	932.71
534.103	944.81
534.556	938.76
535.01	952.16
535.464	939.01
535.918	945.76
536.372	946.26
536.826	936.96
537.279	937.61
537.733	943.71
538.187	939.06
538.64	947.31
539.094	960.01
539.548	966.01
540.001	956.61
540.455	968.06
540.908	973.36
541.362	973.66
541.815	995.41
542.269	1014.21
542.722	1006.51
543.175	1012.71
543.629	1023.11
544.082	1031.41
544.536	1035.71
544.989	1032.96
545.442	1042.61
545.895	1039.46
546.349	1042.36
546.802	1050.71
547.255	1048.91
547.708	1057.81
548.161	1063.11
548.614	1062.11
549.067	1064.51
549.52	1053.16
549.973	1042.66
550.426	1048.06
550.879	1029.36
551.332	1030.21
551.785	1037.06
552.238	1049.71
552.691	1042.81
553.144	1060.11
553.596	1081.11
554.049	1102.51
554.502	1114.61
554.955	1132.96
555.407	1146.86
555.86	1141.76
556.313	1131.91
556.765	1112.76
557.218	1092.36
557.67	1098.06
558.123	1087.71
558.576	1082.56
559.028	1067.06
559.48	1100.36
559.933	1092.16
560.385	1049.81
560.838	1018.31
561.29	988.31
561.742	980.51
562.195	965.11
562.647	965.66
563.099	968.81
563.551	958.36
564.004	965.36
564.456	954.56
564.908	936.26
565.36	924.21
565.812	906.66
566.264	893.66
566.716	886.26
567.168	871.31
567.62	875.31
568.072	866.86
568.524	855.11
568.976	855.51
569.428	852.96
569.88	834.21
570.332	850.36
570.784	849.31
571.235	839.46
571.687	855.41
572.139	842.61
572.59	860.81
573.042	857.21
573.494	854.36
573.945	847.96
574.397	830.01
574.849	830.61
575.3	831.86
575.752	819.31
576.203	810.01
576.655	821.66
577.106	801.91
577.557	803.96
578.009	803.96
578.46	805.66
578.912	793.56
579.363	795.61
579.814	801.41
580.265	792.76
580.717	794.16
581.168	791.66
581.619	797.81
582.07	812.01
582.521	811.46
582.972	806.76
583.423	810.86
583.875	827.56
584.326	868.76
584.777	953.51
585.227	1039.61
585.678	1111.46
586.129	1142.96
586.58	1161.21
587.031	1169.31
587.482	1245.81
587.933	1466.31
588.384	1358.01
588.834	1107.16
589.285	928.61
589.736	911.26
590.186	911.26
590.637	895.91
591.088	879.11
591.538	864.36
591.989	859.66
592.439	856.36
592.89	846.51
593.34	854.81
593.791	868.41
594.241	862.56
594.692	881.41
595.142	868.31
595.593	848.96
596.043	851.01
596.493	868.01
596.943	882.26
597.394	876.11
597.844	856.51
598.294	869.36
598.744	897.46
599.195	934.86
599.645	985.51
600.095	1022.11
600.545	1070.61
600.995	1123.41
601.445	1165.06
601.895	1222.31
602.345	1265.01
602.795	1247.91
603.245	1191.71
603.695	1118.01
604.145	1069.96
604.594	1018.21
605.044	964.71
605.494	911.21
605.944	856.06
606.393	841.81
606.843	831.21
607.293	837.76
607.743	827.56
608.192	835.56
608.642	832.71
609.091	833.36
609.541	838.21
609.99	837.16
610.44	819.81
610.889	811.06
611.339	804.76
611.788	794.26
612.238	805.46
612.687	811.81
613.136	822.91
613.586	837.56
614.035	833.71
614.484	844.01
614.933	854.51
615.383	834.81
615.832	813.41
616.281	794.51
616.73	779.46
617.179	750.91
617.628	729.21
618.077	723.36
618.526	709.41
618.975	708.36
619.424	697.11
619.873	703.21
620.322	684.31
620.771	688.66
621.22	683.46
621.669	672.86
622.118	663.71
622.567	661.86
623.015	647.81
623.464	646.91
623.913	636.01
624.361	636.61
624.81	636.51
625.259	625.01
625.707	622.76
626.156	634.46
626.604	634.81
627.053	645.46
627.501	639.46
627.95	648.71
628.398	646.36
628.847	638.31
629.295	635.01
629.744	657.86
630.192	667.61
630.64	710.71
631.089	786.56
631.537	825.86
631.985	827.06
632.433	867.06
632.881	867.46
633.33	1042.16
633.778	1144.31
634.226	796.61
634.674	736.76
635.122	734.06
635.57	749.61
636.018	873.11
636.466	709.41
636.914	626.46
637.362	623.56
637.81	626.31
638.258	649.16
638.705	648.21
639.153	667.36
639.601	680.31
640.049	687.56
640.497	709.41
640.944	721.21
641.392	701.36
641.84	660.91
642.287	637.61
642.735	626.81
643.182	627.66
643.63	622.21
644.078	621.86
644.525	637.36
644.973	657.01
645.42	664.16
645.867	681.16
646.315	696.11
646.762	723.51
647.21	746.66
647.657	779.56
648.104	831.66
648.551	859.91
648.999	940.86
649.446	1042.16
649.893	1183.06
650.34	1413.46
650.787	1755.91
651.234	2290.56
651.682	3217.21
652.129	4690.16
652.576	6766.76
653.023	9117.91
653.47	10705.01
653.917	11653.51
654.363	12185.11
654.81	13019.21
655.257	13195.91
655.704	8976.76
656.151	5215.91
656.598	3325.36
657.044	2340.66
657.491	1819.01
657.938	1450.01
658.385	1211.61
658.831	1064.51
659.278	938.51
659.724	852.66
660.171	786.76
660.618	729.16
661.064	685.26
661.511	647.81
661.957	622.56
662.404	610.46
662.85	606.06
663.296	590.71
663.743	568.56
664.189	571.71
664.635	557.41
665.082	562.41
665.528	548.76
665.974	528.51
666.42	529.31
666.867	536.51
667.313	538.06
667.759	569.61
668.205	569.06
668.651	567.51
669.097	554.96
669.543	610.66
669.989	574.91
670.435	494.86
670.881	490.16
671.327	509.46
671.773	541.31
672.219	579.41
672.665	614.71
673.11	637.21
673.556	640.96
674.002	657.11
674.448	656.16
674.893	554.46
675.339	490.51
675.785	455.41
676.23	445.21
676.676	413.26
677.122	409.86
677.567	396.11
678.013	385.06
678.458	377.26
678.904	376.61
679.349	377.01
679.794	375.56
680.24	375.06
680.685	371.01
681.131	371.41
681.576	372.96
682.021	375.26
682.466	380.61
682.912	376.51
683.357	401.36
683.802	435.96
684.247	473.36
684.692	502.16
685.137	512.26
685.583	526.01
686.028	553.21
686.473	534.21
686.918	461.51
687.363	425.46
687.807	403.81
688.252	385.11
688.697	376.16
689.142	349.31
689.587	356.36
690.032	365.76
690.477	377.31
690.921	400.71
691.366	422.81
691.811	428.01
692.255	471.36
692.7	574.71
693.145	818.36
693.589	1211.51
694.034	1437.16
694.478	1536.96
694.923	1413.21
695.367	1978.46
695.812	1236.11
696.256	536.91
696.701	389.91
697.145	364.16
697.59	346.21
698.034	349.01
698.478	346.66
698.922	353.86
699.367	356.51
699.811	373.16
700.255	410.01
700.699	442.31
701.143	476.96
701.588	501.91
702.032	523.06
702.476	533.66
702.92	570.81
703.364	744.51
703.808	1116.06
704.252	1387.26
704.696	1464.96
705.14	1393.41
705.584	1883.86
706.027	1080.76
706.471	547.21
706.915	406.56
707.359	367.36
707.803	342.46
708.246	331.81
708.69	333.46
709.134	322.46
709.577	327.16
710.021	328.76
710.465	329.66
710.908	326.46
711.352	339.46
711.795	372.36
712.239	406.91
712.682	407.96
713.126	405.21
713.569	455.56
714.012	380.21
714.456	333.21
714.899	312.66
715.342	289.71
715.786	282.66
716.229	271.31
716.672	265.76
717.115	262.71
717.558	267.16
718.002	269.86
718.445	290.01
718.888	305.81
719.331	307.66
719.774	312.46
720.217	305.71
720.66	288.21
721.103	277.06
721.546	263.86
721.989	258.06
722.432	253.66
722.874	258.96
723.317	255.61
723.76	280.56
724.203	343.11
724.645	453.36
725.088	526.16
725.531	514.11
725.974	565.66
726.416	506.81
726.859	314.26
727.301	258.86
727.744	247.21
728.187	253.01
728.629	255.16
729.071	265.46
729.514	280.31
729.956	293.06
730.399	290.21
730.841	291.16
731.283	281.96
731.726	273.06
732.168	277.96
732.61	296.71
733.053	317.36
733.495	353.56
733.937	392.86
734.379	458.31
734.821	593.21
735.263	929.21
735.705	1626.71
736.148	2349.01
736.59	2361.81
737.032	2562.81
737.474	2129.86
737.916	851.01
738.357	442.96
738.799	344.51
739.241	315.86
739.683	316.11
740.125	322.76
740.567	322.16
741.008	345.21
741.45	353.66
741.892	369.26
742.334	366.41
742.775	357.61
743.217	345.11
743.658	301.01
744.1	302.71
744.542	332.06
744.983	340.11
745.425	360.41
745.866	361.81
746.307	321.66
746.749	354.01
747.19	508.61
747.632	980.91
748.073	1779.61
748.514	2413.06
748.956	3244.11
749.397	3761.31
749.838	2602.91
750.279	2492.56
750.72	1327.61
751.162	563.51
751.603	321.81
752.044	266.36
752.485	233.11
752.926	216.26
753.367	212.86
753.808	202.71
754.249	199.21
754.69	199.96
755.131	194.66
755.572	189.11
