Data from MSPlasma+Separation6_Subt14_10-15-21-838.txt Node
Date: Fri Jul 21 10:15:21 EDT 2017
User: Ender
Spectrometer: HR+D1039
Trigger mode: 0
Integration Time (sec): 6.430000E-3
Scans to average: 20
Electric dark correction enabled: true
Nonlinearity correction enabled: false
Boxcar width: 0
XAxis mode: Wavelengths
Number of Pixels in Spectrum: 2048
>>>>>Begin Spectral Data<<<<<
187.836	1.42
188.309	1.42
188.782	1.42
189.255	0.77
189.728	2.67
190.201	-0.73
190.674	2.82
191.147	1.57
191.619	-2.63
192.092	-2.53
192.565	-3.58
193.038	3.12
193.511	-0.63
193.984	2.77
194.456	0.02
194.929	-2.43
195.402	-1.33
195.874	-1.33
196.347	6.37
196.82	0.67
197.292	-0.13
197.765	-0.68
198.237	-1.13
198.71	-1.98
199.182	0.77
199.655	7.62
200.127	-0.43
200.6	-0.18
201.072	3.72
201.544	0.67
202.017	0.37
202.489	6.02
202.961	-0.13
203.433	-1.58
203.906	-0.73
204.378	3.42
204.85	2.52
205.322	-0.98
205.794	6.02
206.266	2.47
206.739	5.82
207.211	3.57
207.683	3.47
208.155	6.82
208.627	1.42
209.099	7.17
209.57	4.72
210.042	6.87
210.514	-0.43
210.986	13.87
211.458	24.27
211.93	11.12
212.402	6.42
212.873	0.12
213.345	-2.38
213.817	1.02
214.288	-1.73
214.76	2.67
215.232	-0.28
215.703	-0.78
216.175	4.72
216.646	4.47
217.118	6.42
217.589	-0.48
218.061	5.72
218.532	2.62
219.004	11.17
219.475	13.22
219.946	26.22
220.418	33.22
220.889	25.07
221.36	14.52
221.832	14.82
222.303	4.62
222.774	8.42
223.245	4.97
223.717	3.27
224.188	8.47
224.659	5.82
225.13	5.07
225.601	4.87
226.072	4.52
226.543	13.17
227.014	7.17
227.485	10.52
227.956	9.27
228.427	18.12
228.898	13.42
229.369	14.97
229.839	12.77
230.31	16.27
230.781	13.77
231.252	16.32
231.722	24.27
232.193	31.67
232.664	38.12
233.135	51.72
233.605	56.47
234.076	44.47
234.546	34.52
235.017	41.72
235.487	45.12
235.958	35.62
236.428	54.67
236.899	100.52
237.369	106.22
237.84	77.37
238.31	99.12
238.78	99.17
239.251	96.47
239.721	97.72
240.191	80.77
240.662	47.12
241.132	36.37
241.602	45.37
242.072	65.97
242.542	78.42
243.013	53.97
243.483	53.97
243.953	35.92
244.423	44.02
244.893	49.57
245.363	59.62
245.833	51.12
246.303	54.42
246.773	73.77
247.243	75.47
247.712	89.87
248.182	100.07
248.652	105.72
249.122	154.97
249.592	286.02
250.061	443.47
250.531	691.02
251.001	525.42
251.471	438.57
251.94	324.72
252.41	182.17
252.879	125.87
253.349	94.77
253.818	82.92
254.288	69.42
254.757	73.37
255.227	93.17
255.696	75.92
256.166	67.57
256.635	71.57
257.105	91.92
257.574	114.87
258.043	120.12
258.513	223.62
258.982	272.82
259.451	193.02
259.92	189.02
260.389	182.07
260.859	132.77
261.328	149.97
261.797	219.87
262.266	193.27
262.735	96.87
263.204	63.32
263.673	52.77
264.142	53.17
264.611	57.87
265.08	58.07
265.549	58.72
266.018	54.32
266.487	55.82
266.955	53.67
267.424	59.77
267.893	62.67
268.362	65.42
268.83	58.67
269.299	63.97
269.768	73.67
270.236	83.52
270.705	93.57
271.174	88.62
271.642	99.62
272.111	117.42
272.579	176.47
273.048	269.67
273.516	342.62
273.985	343.77
274.453	266.37
274.922	160.42
275.39	108.82
275.858	105.27
276.327	91.02
276.795	89.52
277.263	101.67
277.731	129.92
278.2	240.87
278.668	307.77
279.136	245.12
279.604	157.27
280.072	104.52
280.54	90.47
281.008	91.22
281.477	93.77
281.945	93.52
282.413	98.82
282.881	101.72
283.348	100.12
283.816	105.02
284.284	106.67
284.752	107.42
285.22	114.72
285.688	119.12
286.156	187.87
286.623	504.87
287.091	973.87
287.559	508.77
288.026	201.02
288.494	132.32
288.962	111.22
289.429	104.97
289.897	103.17
290.364	96.52
290.832	97.77
291.3	103.27
291.767	106.22
292.234	106.02
292.702	112.57
293.169	118.27
293.637	126.52
294.104	119.62
294.571	121.12
295.039	119.57
295.506	116.02
295.973	123.22
296.44	114.47
296.908	127.67
297.375	142.77
297.842	138.37
298.309	117.12
298.776	122.97
299.243	126.02
299.71	120.12
300.177	122.87
300.644	134.42
301.111	151.32
301.578	138.57
302.045	128.12
302.512	129.02
302.979	138.02
303.446	139.57
303.913	138.57
304.379	151.42
304.846	162.82
305.313	180.07
305.78	214.82
306.246	250.97
306.713	262.02
307.18	233.02
307.646	258.72
308.113	226.07
308.579	182.07
309.046	180.57
309.512	181.27
309.979	170.72
310.445	161.87
310.912	165.37
311.378	164.27
311.845	163.92
312.311	162.72
312.777	157.62
313.244	170.42
313.71	171.72
314.176	188.27
314.642	214.57
315.109	251.42
315.575	235.22
316.041	219.32
316.507	205.17
316.973	226.57
317.439	218.77
317.905	241.97
318.371	240.42
318.837	226.52
319.303	237.62
319.769	215.07
320.235	240.07
320.701	274.77
321.167	286.72
321.633	346.72
322.099	474.12
322.564	633.47
323.03	494.17
323.496	357.62
323.962	331.32
324.427	316.32
324.893	278.57
325.359	268.42
325.824	238.97
326.29	246.52
326.755	256.82
327.221	253.02
327.686	265.37
328.152	242.52
328.617	234.47
329.083	239.47
329.548	245.87
330.014	255.02
330.479	278.87
330.944	314.62
331.41	357.62
331.875	354.47
332.34	363.12
332.805	413.22
333.271	517.82
333.736	668.52
334.201	604.27
334.666	461.32
335.131	514.42
335.596	415.47
336.061	441.07
336.526	436.92
336.991	392.47
337.456	415.17
337.921	340.47
338.386	280.92
338.851	256.97
339.316	244.07
339.781	241.32
340.246	241.62
340.711	238.62
341.175	246.87
341.64	252.42
342.105	257.57
342.569	273.22
343.034	291.07
343.499	300.37
343.963	290.87
344.428	286.12
344.893	286.92
345.357	298.57
345.822	290.32
346.286	295.57
346.751	306.67
347.215	311.22
347.679	315.32
348.144	339.92
348.608	334.47
349.073	345.22
349.537	378.37
350.001	373.52
350.465	348.92
350.93	341.32
351.394	340.12
351.858	335.67
352.322	355.62
352.786	359.92
353.25	354.07
353.715	349.72
354.179	364.72
354.643	388.72
355.107	401.07
355.571	411.92
356.035	422.27
356.498	408.12
356.962	436.92
357.426	430.62
357.89	393.37
358.354	373.67
358.818	374.82
359.281	380.27
359.745	390.37
360.209	387.37
360.673	383.12
361.136	398.87
361.6	394.27
362.064	420.27
362.527	424.17
362.991	426.72
363.454	424.12
363.918	434.22
364.381	425.52
364.845	417.67
365.308	410.77
365.772	412.47
366.235	418.12
366.698	442.42
367.162	519.37
367.625	574.97
368.088	472.47
368.552	432.97
369.015	443.17
369.478	468.57
369.941	477.47
370.404	484.07
370.867	509.62
371.331	513.52
371.794	526.92
372.257	577.22
372.72	609.57
373.183	587.72
373.646	587.52
374.109	583.47
374.572	674.02
375.035	782.22
375.497	608.47
375.96	502.97
376.423	480.12
376.886	483.72
377.349	494.12
377.811	497.57
378.274	504.27
378.737	503.22
379.199	524.92
379.662	532.42
380.125	563.82
380.587	619.22
381.05	654.97
381.512	647.42
381.975	635.42
382.437	630.32
382.9	635.92
383.362	640.87
383.825	671.82
384.287	830.17
384.75	914.57
385.212	816.17
385.674	681.72
386.136	628.87
386.599	630.72
387.061	648.67
387.523	675.42
387.985	679.87
388.447	700.62
388.91	767.92
389.372	920.77
389.834	869.47
390.296	732.97
390.758	750.02
391.22	770.07
391.682	926.22
392.144	1400.22
392.606	1310.92
393.068	798.17
393.529	741.07
393.991	728.47
394.453	705.07
394.915	742.57
395.377	879.52
395.838	1063.52
396.3	780.77
396.762	618.97
397.224	592.97
397.685	585.77
398.147	597.77
398.608	600.77
399.07	606.87
399.531	595.57
399.993	613.37
400.454	627.02
400.916	623.82
401.377	631.52
401.839	639.17
402.3	640.42
402.762	676.82
403.223	733.37
403.684	747.27
404.145	693.92
404.607	670.82
405.068	668.92
405.529	687.37
405.99	693.72
406.451	711.22
406.913	694.72
407.374	698.92
407.835	701.22
408.296	723.92
408.757	724.22
409.218	747.57
409.679	768.32
410.14	774.27
410.601	797.42
411.062	833.27
411.522	944.82
411.983	1029.42
412.444	898.62
412.905	806.82
413.366	814.12
413.826	837.12
414.287	934.52
414.748	1121.67
415.208	1144.27
415.669	946.77
416.13	869.02
416.59	847.07
417.051	884.52
417.511	922.82
417.972	997.52
418.432	1069.17
418.893	1180.47
419.353	1123.62
419.814	860.82
420.274	772.42
420.734	774.22
421.195	816.42
421.655	843.97
422.115	821.37
422.576	801.52
423.036	804.62
423.496	834.67
423.956	881.42
424.416	932.02
424.876	1053.17
425.336	1049.02
425.797	1043.67
426.257	1032.17
426.717	965.77
427.177	901.82
427.637	936.17
428.097	967.92
428.556	1023.77
429.016	1106.92
429.476	1097.67
429.936	1054.07
430.396	1033.17
430.856	1043.82
431.315	1083.27
431.775	1146.12
432.235	1214.62
432.694	1235.02
433.154	1160.17
433.614	1135.02
434.073	1094.42
434.533	997.82
434.993	963.42
435.452	966.17
435.912	950.47
436.371	956.62
436.83	955.57
437.29	962.77
437.749	916.52
438.209	907.27
438.668	921.97
439.127	930.37
439.587	912.67
440.046	877.37
440.505	902.17
440.964	896.22
441.424	926.62
441.883	942.72
442.342	889.67
442.801	863.32
443.26	886.07
443.719	875.97
444.178	862.67
444.637	878.27
445.096	879.47
445.555	895.22
446.014	891.97
446.473	867.67
446.932	870.32
447.391	873.67
447.849	896.62
448.308	894.02
448.767	911.77
449.226	931.52
449.685	931.97
450.143	980.87
450.602	983.07
451.061	945.87
451.519	951.02
451.978	963.47
452.436	990.27
452.895	951.47
453.353	930.77
453.812	939.62
454.27	935.82
454.729	907.22
455.187	915.62
455.646	914.37
456.104	930.02
456.562	921.57
457.021	921.97
457.479	882.27
457.937	908.12
458.395	932.72
458.854	917.57
459.312	907.02
459.77	920.67
460.228	928.57
460.686	942.12
461.144	945.82
461.602	932.77
462.06	933.47
462.518	948.62
462.976	952.17
463.434	969.47
463.892	979.77
464.35	992.72
464.808	999.62
465.266	1018.32
465.724	1025.32
466.181	1037.67
466.639	1028.37
467.097	1066.42
467.555	1111.67
468.012	1101.27
468.47	1099.67
468.928	1143.27
469.385	1172.27
469.843	1190.77
470.3	1177.82
470.758	1212.47
471.215	1231.97
471.673	1268.42
472.13	1303.47
472.588	1318.97
473.045	1320.92
473.503	1338.17
473.96	1404.37
474.417	1430.97
474.875	1480.77
475.332	1527.62
475.789	1547.12
476.246	1597.82
476.704	1667.07
477.161	1714.47
477.618	1750.07
478.075	1832.07
478.532	1968.47
478.989	2123.02
479.446	2328.62
479.903	2447.72
480.36	2673.07
480.817	2822.22
481.274	3027.62
481.731	3292.72
482.188	3536.87
482.645	3810.12
483.102	4037.72
483.558	4330.22
484.015	4513.67
484.472	4532.22
484.929	4374.17
485.385	4205.82
485.842	4108.07
486.299	3921.32
486.755	3558.87
487.212	3217.82
487.668	2897.97
488.125	2706.47
488.582	2513.22
489.038	2412.52
489.494	2349.62
489.951	2288.32
490.407	2238.92
490.864	2199.52
491.32	2156.67
491.776	2121.32
492.233	2143.27
492.689	2101.57
493.145	2072.12
493.602	2062.77
494.058	2098.32
494.514	2132.37
494.97	2142.27
495.426	2160.72
495.882	2163.62
496.338	2182.52
496.794	2248.02
497.251	2256.97
497.707	2259.87
498.163	2275.87
498.618	2263.92
499.074	2282.22
499.53	2316.87
499.986	2358.72
500.442	2383.47
500.898	2373.17
501.354	2417.52
501.809	2422.72
502.265	2459.27
502.721	2576.92
503.177	2637.02
503.632	2516.07
504.088	2537.72
504.543	2756.47
504.999	2596.97
505.455	2328.02
505.91	2227.07
506.366	2197.72
506.821	2206.87
507.277	2185.62
507.732	2195.02
508.187	2194.77
508.643	2204.47
509.098	2208.12
509.553	2236.22
510.009	2273.37
510.464	2294.47
510.919	2320.97
511.375	2359.17
511.83	2385.97
512.285	2425.97
512.74	2480.87
513.195	2523.22
513.65	2564.22
514.105	2592.92
514.56	2611.77
515.015	2669.12
515.47	2690.67
515.925	2674.72
516.38	2663.77
516.835	2651.22
517.29	2642.92
517.745	2657.62
518.2	2620.07
518.655	2544.72
519.109	2513.47
519.564	2484.27
520.019	2460.22
520.474	2434.72
520.928	2406.67
521.383	2420.02
521.838	2402.07
522.292	2370.07
522.747	2352.47
523.201	2332.52
523.656	2313.22
524.11	2305.77
524.565	2307.37
525.019	2304.37
525.474	2308.77
525.928	2293.72
526.382	2283.57
526.837	2268.07
527.291	2279.12
527.745	2265.82
528.2	2251.82
528.654	2233.77
529.108	2241.02
529.562	2247.27
530.016	2240.67
530.47	2259.52
530.925	2244.62
531.379	2278.72
531.833	2284.32
532.287	2270.87
532.741	2266.92
533.195	2258.07
533.649	2267.22
534.103	2266.52
534.556	2251.57
535.01	2273.02
535.464	2265.42
535.918	2271.67
536.372	2290.02
536.826	2275.22
537.279	2254.67
537.733	2263.62
538.187	2267.02
538.64	2278.32
539.094	2292.17
539.548	2326.32
540.001	2307.47
540.455	2310.92
540.908	2336.62
541.362	2355.47
541.815	2386.52
542.269	2422.87
542.722	2419.07
543.175	2445.77
543.629	2468.32
544.082	2481.02
544.536	2508.47
544.989	2511.92
545.442	2518.67
545.895	2524.92
546.349	2510.47
546.802	2524.37
547.255	2523.82
547.708	2542.82
548.161	2565.72
548.614	2567.32
549.067	2582.27
549.52	2547.87
549.973	2519.92
550.426	2530.02
550.879	2498.77
551.332	2493.67
551.785	2513.72
552.238	2530.72
552.691	2544.12
553.144	2588.07
553.596	2631.67
554.049	2655.52
554.502	2711.57
554.955	2752.87
555.407	2775.92
555.86	2749.32
556.313	2726.92
556.765	2707.37
557.218	2666.92
557.67	2664.02
558.123	2642.52
558.576	2622.97
559.028	2617.72
559.48	2647.37
559.933	2628.52
560.385	2557.62
560.838	2457.62
561.29	2377.17
561.742	2378.62
562.195	2328.02
562.647	2328.82
563.099	2322.62
563.551	2304.42
564.004	2327.72
564.456	2301.12
564.908	2263.37
565.36	2213.57
565.812	2169.37
566.264	2154.12
566.716	2108.92
567.168	2080.52
567.62	2089.87
568.072	2080.27
568.524	2054.92
568.976	2039.82
569.428	2022.37
569.88	2011.02
570.332	2027.82
570.784	2019.47
571.235	2014.17
571.687	2036.37
572.139	2034.97
572.59	2065.07
573.042	2062.72
573.494	2070.12
573.945	2030.72
574.397	1991.82
574.849	1986.52
575.3	2000.27
575.752	1967.87
576.203	1954.62
576.655	1961.12
577.106	1928.07
577.557	1931.02
578.009	1925.87
578.46	1928.92
578.912	1913.62
579.363	1917.02
579.814	1911.37
580.265	1911.62
580.717	1913.12
581.168	1915.87
581.619	1922.77
582.07	1944.07
582.521	1928.47
582.972	1929.22
583.423	1954.57
583.875	1987.37
584.326	2070.02
584.777	2245.62
585.227	2443.32
585.678	2585.47
586.129	2640.32
586.58	2677.47
587.031	2716.32
587.482	2873.62
587.933	3329.32
588.384	3089.47
588.834	2566.92
589.285	2222.62
589.736	2191.12
590.186	2174.17
590.637	2170.32
591.088	2120.37
591.538	2081.57
591.989	2067.97
592.439	2050.77
592.89	2040.17
593.34	2046.57
593.791	2052.27
594.241	2051.72
594.692	2084.97
595.142	2055.92
595.593	2030.12
596.043	2027.72
596.493	2065.47
596.943	2107.02
597.394	2092.47
597.844	2065.97
598.294	2110.47
598.744	2175.02
599.195	2269.37
599.645	2404.57
600.095	2519.87
600.545	2645.72
600.995	2759.22
601.445	2850.57
601.895	3001.22
602.345	3093.82
602.795	3049.57
603.245	2897.87
603.695	2733.42
604.145	2578.97
604.594	2462.52
605.044	2331.32
605.494	2190.67
605.944	2072.07
606.393	2034.27
606.843	2007.92
607.293	1998.07
607.743	2004.02
608.192	2012.52
608.642	2018.02
609.091	2023.42
609.541	2020.02
609.99	2009.67
610.44	1967.27
610.889	1956.87
611.339	1937.97
611.788	1914.67
612.238	1921.07
612.687	1955.47
613.136	1977.42
613.586	2009.97
614.035	1992.87
614.484	2014.22
614.933	2026.77
615.383	1987.52
615.832	1921.52
616.281	1894.22
616.73	1834.57
617.179	1786.07
617.628	1753.47
618.077	1719.97
618.526	1691.47
618.975	1677.12
619.424	1657.17
619.873	1655.77
620.322	1657.62
620.771	1647.72
621.22	1624.02
621.669	1591.07
622.118	1574.27
622.567	1566.97
623.015	1539.42
623.464	1532.92
623.913	1513.77
624.361	1502.07
624.81	1504.42
625.259	1503.47
625.707	1483.62
626.156	1499.92
626.604	1503.97
627.053	1513.32
627.501	1514.77
627.95	1515.82
628.398	1540.92
628.847	1519.67
629.295	1522.57
629.744	1541.32
630.192	1582.82
630.64	1684.97
631.089	1810.22
631.537	1902.27
631.985	1892.27
632.433	1962.77
632.881	1946.67
633.33	2321.82
633.778	2515.02
634.226	1817.62
634.674	1701.92
635.122	1693.02
635.57	1708.97
636.018	1970.37
636.466	1642.02
636.914	1464.02
637.362	1465.47
637.81	1487.97
638.258	1537.22
638.705	1544.22
639.153	1596.17
639.601	1609.22
640.049	1629.47
640.497	1664.12
640.944	1720.17
641.392	1639.42
641.84	1543.12
642.287	1474.62
642.735	1456.97
643.182	1435.32
643.63	1445.97
644.078	1454.37
644.525	1466.02
644.973	1494.42
645.42	1518.32
645.867	1533.77
646.315	1559.77
646.762	1619.17
647.21	1653.27
647.657	1724.32
648.104	1801.12
648.551	1849.17
648.999	1987.52
649.446	2186.87
649.893	2446.77
650.34	2849.42
650.787	3504.72
651.234	4521.87
651.682	6291.47
652.129	8938.77
652.576	12745.72
653.023	15531.87
653.47	15540.52
653.917	15540.57
654.363	15540.47
654.81	15537.47
655.257	15538.12
655.704	15508.17
656.151	9645.07
656.598	6289.02
657.044	4500.87
657.491	3522.27
657.938	2886.02
658.385	2457.17
658.831	2188.77
659.278	1959.42
659.724	1801.22
660.171	1689.12
660.618	1561.27
661.064	1487.77
661.511	1451.87
661.957	1397.92
662.404	1364.02
662.85	1353.87
663.296	1338.22
663.743	1304.57
664.189	1301.42
664.635	1298.22
665.082	1270.87
665.528	1258.72
665.974	1228.82
666.42	1217.42
666.867	1240.92
667.313	1232.22
667.759	1280.57
668.205	1264.97
668.651	1288.12
669.097	1249.17
669.543	1359.97
669.989	1280.92
670.435	1153.87
670.881	1155.42
671.327	1194.82
671.773	1273.47
672.219	1363.77
672.665	1458.52
673.11	1504.62
673.556	1520.57
674.002	1549.97
674.448	1574.82
674.893	1343.92
675.339	1168.52
675.785	1088.57
676.23	1032.47
676.676	994.07
677.122	961.42
677.567	927.97
678.013	912.32
678.458	904.27
678.904	905.37
679.349	894.47
679.794	886.22
680.24	890.62
680.685	880.12
681.131	880.77
681.576	881.67
682.021	889.12
682.466	899.97
682.912	910.27
683.357	958.02
683.802	1043.77
684.247	1134.62
684.692	1200.62
685.137	1248.47
685.583	1258.92
686.028	1333.02
686.473	1268.12
686.918	1094.47
687.363	994.72
687.807	956.57
688.252	907.52
688.697	878.87
689.142	852.57
689.587	858.97
690.032	873.52
690.477	904.07
690.921	955.32
691.366	996.32
691.811	1041.12
692.255	1137.77
692.7	1381.12
693.145	2007.02
693.589	3052.52
694.034	3617.67
694.478	3836.62
694.923	3481.02
695.367	4946.77
695.812	3000.77
696.256	1274.77
696.701	934.22
697.145	867.27
697.59	838.37
698.034	824.82
698.478	827.52
698.922	842.97
699.367	852.57
699.811	896.97
700.255	978.22
700.699	1059.02
701.143	1155.72
701.588	1217.92
702.032	1258.97
702.476	1291.82
702.92	1381.57
703.364	1819.82
703.808	2796.57
704.252	3471.72
704.696	3648.17
705.14	3423.37
705.584	4693.07
706.027	2595.17
706.471	1306.22
706.915	971.87
707.359	882.52
707.803	820.67
708.246	785.17
708.69	787.07
709.134	783.87
709.577	775.32
710.021	790.07
710.465	785.92
710.908	768.52
711.352	806.57
711.795	910.87
712.239	962.67
712.682	980.77
713.126	970.27
713.569	1095.92
714.012	902.42
714.456	782.72
714.899	738.12
715.342	695.92
715.786	671.17
716.229	652.82
716.672	639.17
717.115	637.92
717.558	642.97
718.002	658.22
718.445	698.97
718.888	733.42
719.331	744.62
719.774	758.92
720.217	741.22
720.66	699.27
721.103	661.37
721.546	622.72
721.989	615.82
722.432	609.37
722.874	604.77
723.317	614.97
723.76	669.52
724.203	824.42
724.645	1093.87
725.088	1274.97
725.531	1244.72
725.974	1360.12
726.416	1223.57
726.859	760.67
727.301	627.52
727.744	592.62
728.187	595.37
728.629	610.77
729.071	644.87
729.514	664.42
729.956	697.27
730.399	702.02
730.841	696.97
731.283	688.02
731.726	663.57
732.168	678.37
732.61	709.07
733.053	771.87
733.495	848.62
733.937	947.17
734.379	1111.22
734.821	1428.97
735.263	2305.42
735.705	4154.57
736.148	6044.17
736.59	5940.92
737.032	6426.47
737.474	5294.82
737.916	2025.92
738.357	1073.27
738.799	827.57
739.241	769.97
739.683	764.22
740.125	781.97
740.567	778.62
741.008	816.42
741.45	850.47
741.892	879.82
742.334	887.42
