Data from MSPlasma+Separation6_Subt14_10-15-03-872.txt Node
Date: Fri Jul 21 10:15:03 EDT 2017
User: Ender
Spectrometer: HR+D1039
Trigger mode: 0
Integration Time (sec): 6.430000E-3
Scans to average: 20
Electric dark correction enabled: true
Nonlinearity correction enabled: false
Boxcar width: 0
XAxis mode: Wavelengths
Number of Pixels in Spectrum: 2048
>>>>>Begin Spectral Data<<<<<
187.836	-0.86
188.309	-0.86
188.782	-0.86
189.255	2.44
189.728	2.39
190.201	-3.01
190.674	-1.96
191.147	-0.26
191.619	1.29
192.092	-2.26
192.565	3.84
193.038	0.64
193.511	1.39
193.984	1.54
194.456	0.29
194.929	-0.71
195.402	-2.96
195.874	-1.86
196.347	-0.61
196.82	1.89
197.292	-3.36
197.765	-2.01
198.237	-3.01
198.71	-6.16
199.182	2.44
199.655	-0.81
200.127	2.14
200.6	2.14
201.072	2.24
201.544	1.99
202.017	4.49
202.489	-0.01
202.961	-4.51
203.433	-2.36
203.906	1.34
204.378	5.49
204.85	0.09
205.322	2.79
205.794	7.34
206.266	4.54
206.739	8.04
207.211	0.84
207.683	1.94
208.155	4.14
208.627	2.79
209.099	5.59
209.57	5.14
210.042	5.29
210.514	5.79
210.986	18.44
211.458	25.34
211.93	12.99
212.402	4.19
212.873	1.59
213.345	-2.31
213.817	1.94
214.288	-2.01
214.76	3.89
215.232	1.44
215.703	3.64
216.175	5.09
216.646	3.44
217.118	4.24
217.589	1.69
218.061	2.64
218.532	2.24
219.004	10.84
219.475	18.79
219.946	31.54
220.418	39.39
220.889	25.44
221.36	14.24
221.832	10.94
222.303	11.69
222.774	9.14
223.245	6.89
223.717	2.74
224.188	9.14
224.659	4.54
225.13	2.34
225.601	4.14
226.072	5.79
226.543	9.99
227.014	10.14
227.485	13.09
227.956	15.14
228.427	15.79
228.898	15.84
229.369	11.19
229.839	16.39
230.31	12.64
230.781	14.49
231.252	21.59
231.722	27.69
232.193	40.24
232.664	43.09
233.135	60.69
233.605	61.49
234.076	53.49
234.546	43.64
235.017	46.09
235.487	46.44
235.958	46.14
236.428	71.04
236.899	112.09
237.369	122.59
237.84	92.54
238.31	118.89
238.78	118.19
239.251	116.19
239.721	124.44
240.191	91.59
240.662	53.89
241.132	44.09
241.602	56.64
242.072	77.49
242.542	94.44
243.013	72.14
243.483	57.69
243.953	44.69
244.423	45.49
244.893	60.14
245.363	63.74
245.833	62.24
246.303	65.94
246.773	84.49
247.243	87.34
247.712	100.99
248.182	120.99
248.652	121.04
249.122	177.84
249.592	334.29
250.061	507.49
250.531	806.84
251.001	621.09
251.471	509.74
251.94	387.04
252.41	209.84
252.879	148.04
253.349	113.89
253.818	90.34
254.288	78.24
254.757	76.69
255.227	106.49
255.696	84.89
256.166	80.04
256.635	82.34
257.105	101.94
257.574	142.79
258.043	141.19
258.513	250.39
258.982	316.79
259.451	219.84
259.92	225.19
260.389	202.94
260.859	150.24
261.328	176.99
261.797	256.19
262.266	221.84
262.735	106.09
263.204	70.34
263.673	64.64
264.142	55.49
264.611	57.44
265.08	63.14
265.549	70.34
266.018	61.34
266.487	56.04
266.955	63.04
267.424	64.79
267.893	66.29
268.362	69.94
268.83	64.39
269.299	73.29
269.768	74.64
270.236	97.69
270.705	103.74
271.174	98.69
271.642	111.34
272.111	125.94
272.579	198.94
273.048	300.74
273.516	392.04
273.985	388.29
274.453	300.14
274.922	182.19
275.39	115.89
275.858	113.34
276.327	90.99
276.795	94.39
277.263	101.39
277.731	143.24
278.2	263.24
278.668	346.24
279.136	264.29
279.604	173.04
280.072	106.74
280.54	90.79
281.008	95.99
281.477	97.49
281.945	101.59
282.413	97.19
282.881	102.74
283.348	104.49
283.816	113.14
284.284	116.69
284.752	110.84
285.22	107.99
285.688	126.14
286.156	207.09
286.623	549.99
287.091	1089.04
287.559	563.39
288.026	219.94
288.494	134.89
288.962	112.09
289.429	113.44
289.897	104.84
290.364	105.54
290.832	101.34
291.3	106.39
291.767	111.34
292.234	114.09
292.702	117.29
293.169	123.04
293.637	132.19
294.104	125.19
294.571	121.19
295.039	118.34
295.506	123.34
295.973	125.69
296.44	121.09
296.908	133.19
297.375	149.19
297.842	151.49
298.309	128.14
298.776	131.29
299.243	135.74
299.71	126.54
300.177	127.39
300.644	141.24
301.111	156.94
301.578	142.84
302.045	131.14
302.512	131.59
302.979	138.34
303.446	142.29
303.913	148.04
304.379	155.39
304.846	168.34
305.313	194.19
305.78	216.79
306.246	264.84
306.713	283.84
307.18	254.09
307.646	273.09
308.113	241.74
308.579	190.74
309.046	186.99
309.512	188.24
309.979	172.69
310.445	165.89
310.912	172.24
311.378	168.94
311.845	168.79
312.311	160.49
312.777	161.29
313.244	172.54
313.71	179.69
314.176	192.19
314.642	225.74
315.109	261.59
315.575	249.34
316.041	227.04
316.507	214.34
316.973	240.99
317.439	225.84
317.905	250.29
318.371	247.49
318.837	237.64
319.303	247.09
319.769	228.14
320.235	250.49
320.701	289.64
321.167	310.44
321.633	370.04
322.099	507.64
322.564	683.59
323.03	535.49
323.496	372.54
323.962	352.04
324.427	340.69
324.893	296.19
325.359	283.49
325.824	244.49
326.29	257.94
326.755	259.69
327.221	264.34
327.686	277.09
328.152	254.09
328.617	236.74
329.083	239.84
329.548	258.29
330.014	261.99
330.479	285.19
330.944	327.94
331.41	377.74
331.875	364.89
332.34	377.84
332.805	433.04
333.271	551.69
333.736	730.34
334.201	662.94
334.666	490.79
335.131	555.34
335.596	440.24
336.061	461.59
336.526	468.59
336.991	410.59
337.456	443.64
337.921	352.19
338.386	292.59
338.851	270.39
339.316	252.89
339.781	245.99
340.246	252.89
340.711	247.69
341.175	256.84
341.64	264.09
342.105	264.29
342.569	275.74
343.034	295.84
343.499	309.49
343.963	298.44
344.428	291.69
344.893	305.69
345.357	311.24
345.822	298.24
346.286	306.84
346.751	317.29
347.215	314.84
347.679	321.89
348.144	352.04
348.608	339.84
349.073	355.04
349.537	395.94
350.001	386.09
350.465	360.94
350.93	348.09
351.394	352.19
351.858	349.89
352.322	365.39
352.786	367.14
353.25	361.19
353.715	357.94
354.179	382.09
354.643	402.49
355.107	411.74
355.571	432.79
356.035	444.09
356.498	425.84
356.962	455.74
357.426	448.74
357.89	403.94
358.354	384.19
358.818	377.99
359.281	389.04
359.745	409.39
360.209	402.29
360.673	408.74
361.136	409.69
361.6	411.54
362.064	432.29
362.527	440.69
362.991	439.94
363.454	444.79
363.918	451.59
364.381	439.74
364.845	427.94
365.308	425.49
365.772	428.04
366.235	426.59
366.698	446.59
367.162	537.94
367.625	609.74
368.088	486.39
368.552	447.04
369.015	452.44
369.478	483.69
369.941	493.34
370.404	503.94
370.867	531.24
371.331	542.74
371.794	544.79
372.257	616.29
372.72	638.54
373.183	616.69
373.646	623.24
374.109	616.04
374.572	718.54
375.035	834.69
375.497	640.84
375.96	517.49
376.423	493.39
376.886	492.74
377.349	507.54
377.811	509.74
378.274	522.84
378.737	531.84
379.199	542.79
379.662	550.59
380.125	594.44
380.587	653.49
381.05	696.39
381.512	688.74
381.975	670.19
382.437	660.09
382.9	655.24
383.362	663.09
383.825	711.49
384.287	891.59
384.75	982.94
385.212	875.49
385.674	725.04
386.136	656.09
386.599	654.64
387.061	683.24
387.523	700.79
387.985	708.44
388.447	728.84
388.91	817.99
389.372	981.64
389.834	921.94
390.296	774.04
390.758	783.74
391.22	799.39
391.682	980.09
392.144	1518.39
392.606	1420.39
393.068	844.34
393.529	773.89
393.991	750.09
394.453	739.39
394.915	769.29
395.377	939.64
395.838	1140.69
396.3	819.74
396.762	640.99
397.224	613.14
397.685	608.89
398.147	618.19
398.608	620.89
399.07	627.74
399.531	613.34
399.993	625.79
400.454	634.64
400.916	638.49
401.377	644.29
401.839	660.69
402.3	658.34
402.762	690.54
403.223	756.94
403.684	771.24
404.145	709.24
404.607	686.04
405.068	691.54
405.529	708.54
405.99	713.24
406.451	725.49
406.913	707.74
407.374	718.64
407.835	723.79
408.296	738.94
408.757	746.79
409.218	775.74
409.679	792.69
410.14	791.14
410.601	821.19
411.062	865.14
411.522	982.99
411.983	1097.14
412.444	933.19
412.905	824.54
413.366	831.84
413.826	854.94
414.287	946.14
414.748	1130.94
415.208	1159.84
415.669	966.59
416.13	889.54
416.59	866.24
417.051	889.94
417.511	931.84
417.972	1003.19
418.432	1074.54
418.893	1204.29
419.353	1139.04
419.814	884.99
420.274	793.14
420.734	787.74
421.195	832.29
421.655	874.54
422.115	839.79
422.576	809.79
423.036	811.69
423.496	848.99
423.956	891.84
424.416	947.89
424.876	1067.29
425.336	1062.59
425.797	1062.79
426.257	1059.34
426.717	991.94
427.177	931.34
427.637	961.34
428.097	1002.44
428.556	1052.69
429.016	1143.99
429.476	1139.84
429.936	1097.39
430.396	1058.74
430.856	1072.44
431.315	1104.29
431.775	1190.14
432.235	1254.14
432.694	1275.49
433.154	1195.79
433.614	1162.94
434.073	1120.49
434.533	1020.84
434.993	992.69
435.452	995.79
435.912	978.04
436.371	969.74
436.83	977.84
437.29	988.94
437.749	945.99
438.209	926.64
438.668	945.94
439.127	947.84
439.587	932.99
440.046	889.99
440.505	909.39
440.964	908.84
441.424	931.69
441.883	952.59
442.342	908.24
442.801	872.34
443.26	899.19
443.719	891.89
444.178	878.89
444.637	893.24
445.096	890.74
445.555	912.44
446.014	902.84
446.473	879.29
446.932	875.44
447.391	897.74
447.849	920.54
448.308	904.89
448.767	923.79
449.226	940.89
449.685	959.99
450.143	983.59
450.602	991.59
451.061	945.99
451.519	964.69
451.978	986.64
452.436	1008.94
452.895	962.09
453.353	934.89
453.812	948.69
454.27	939.19
454.729	913.89
455.187	926.94
455.646	927.44
456.104	943.69
456.562	931.94
457.021	916.39
457.479	894.69
457.937	910.24
458.395	933.29
458.854	923.84
459.312	913.09
459.77	932.64
460.228	932.49
460.686	950.34
461.144	952.24
461.602	942.09
462.06	947.89
462.518	963.34
462.976	960.44
463.434	965.69
463.892	979.29
464.35	997.99
464.808	1006.34
465.266	1021.44
465.724	1038.34
466.181	1041.09
466.639	1032.74
467.097	1072.94
467.555	1115.84
468.012	1102.74
468.47	1105.34
468.928	1160.74
469.385	1181.64
469.843	1197.99
470.3	1185.64
470.758	1218.59
471.215	1245.24
471.673	1268.29
472.13	1301.24
472.588	1319.49
473.045	1331.89
473.503	1350.29
473.96	1406.19
474.417	1428.14
474.875	1480.24
475.332	1531.49
475.789	1562.04
476.246	1601.49
476.704	1673.84
477.161	1721.34
477.618	1775.64
478.075	1855.44
478.532	2017.99
478.989	2155.14
479.446	2364.84
479.903	2503.59
480.36	2732.44
480.817	2902.69
481.274	3112.69
481.731	3414.29
482.188	3671.24
482.645	3963.29
483.102	4190.09
483.558	4523.69
484.015	4723.89
484.472	4750.69
484.929	4602.94
485.385	4407.39
485.842	4306.99
486.299	4087.99
486.755	3705.19
487.212	3340.69
487.668	3001.19
488.125	2776.89
488.582	2569.14
489.038	2460.64
489.494	2380.79
489.951	2314.69
490.407	2262.64
490.864	2227.29
491.32	2175.29
491.776	2152.69
492.233	2142.64
492.689	2115.34
493.145	2091.74
493.602	2068.34
494.058	2116.19
494.514	2136.59
494.97	2150.59
495.426	2178.74
495.882	2179.84
496.338	2174.29
496.794	2272.24
497.251	2284.54
497.707	2282.59
498.163	2286.49
498.618	2281.74
499.074	2293.44
499.53	2340.89
499.986	2379.44
500.442	2417.29
500.898	2418.94
501.354	2450.14
501.809	2456.84
502.265	2497.24
502.721	2609.74
503.177	2696.04
503.632	2555.44
504.088	2576.79
504.543	2823.14
504.999	2653.74
505.455	2346.14
505.91	2232.69
506.366	2215.44
506.821	2206.44
507.277	2184.54
507.732	2176.04
508.187	2191.59
508.643	2201.69
509.098	2221.19
509.553	2236.34
510.009	2261.44
510.464	2307.49
510.919	2327.59
511.375	2359.09
511.83	2382.59
512.285	2427.04
512.74	2459.49
513.195	2496.29
513.65	2559.69
514.105	2585.64
514.56	2600.19
515.015	2644.09
515.47	2672.74
515.925	2670.24
516.38	2654.99
516.835	2636.49
517.29	2646.14
517.745	2651.74
518.2	2618.74
518.655	2531.69
519.109	2489.34
519.564	2469.54
520.019	2459.04
520.474	2419.89
520.928	2418.49
521.383	2409.49
521.838	2392.59
522.292	2364.99
522.747	2344.09
523.201	2333.54
523.656	2306.04
524.11	2294.79
524.565	2295.94
525.019	2299.99
525.474	2316.69
525.928	2306.49
526.382	2279.54
526.837	2245.29
527.291	2278.39
527.745	2249.64
528.2	2251.59
528.654	2237.94
529.108	2239.09
529.562	2246.59
530.016	2246.54
530.47	2257.34
530.925	2243.39
531.379	2262.89
531.833	2294.84
532.287	2258.39
532.741	2250.24
533.195	2248.24
533.649	2240.94
534.103	2262.24
534.556	2244.74
535.01	2253.89
535.464	2248.79
535.918	2261.34
536.372	2264.09
536.826	2239.74
537.279	2237.39
537.733	2250.94
538.187	2271.14
538.64	2262.34
539.094	2279.54
539.548	2309.14
540.001	2310.84
540.455	2307.14
540.908	2320.29
541.362	2341.99
541.815	2369.29
542.269	2420.74
542.722	2401.49
543.175	2422.99
543.629	2448.19
544.082	2456.74
544.536	2484.79
544.989	2485.99
545.442	2511.04
545.895	2505.09
546.349	2500.84
546.802	2507.89
547.255	2500.19
547.708	2532.19
548.161	2556.14
548.614	2551.99
549.067	2558.84
549.52	2545.59
549.973	2517.24
550.426	2502.19
550.879	2479.24
551.332	2474.14
551.785	2495.39
552.238	2527.59
552.691	2511.04
553.144	2542.79
553.596	2597.79
554.049	2625.89
554.502	2689.34
554.955	2735.59
555.407	2762.59
555.86	2747.19
556.313	2709.09
556.765	2683.99
557.218	2633.99
557.67	2638.54
558.123	2617.59
558.576	2599.94
559.028	2583.54
559.48	2629.99
559.933	2609.29
560.385	2537.59
560.838	2450.29
561.29	2354.79
561.742	2371.94
562.195	2325.79
562.647	2316.34
563.099	2297.29
563.551	2274.29
564.004	2310.09
564.456	2286.14
564.908	2240.24
565.36	2207.04
565.812	2152.64
566.264	2131.44
566.716	2106.94
567.168	2079.19
567.62	2090.14
568.072	2055.94
568.524	2034.29
568.976	2037.49
569.428	2009.44
569.88	2006.39
570.332	2018.19
570.784	2023.09
571.235	1985.74
571.687	2023.14
572.139	2011.44
572.59	2030.59
573.042	2049.89
573.494	2042.74
573.945	2026.09
574.397	1989.79
574.849	1972.99
575.3	1985.84
575.752	1950.84
576.203	1938.14
576.655	1955.34
577.106	1909.34
577.557	1907.84
578.009	1902.49
578.46	1908.54
578.912	1890.44
579.363	1908.99
579.814	1895.44
580.265	1894.14
580.717	1889.99
581.168	1884.64
581.619	1898.19
582.07	1917.49
582.521	1906.29
582.972	1908.24
583.423	1932.94
583.875	1963.99
584.326	2064.19
584.777	2253.84
585.227	2454.79
585.678	2623.54
586.129	2662.99
586.58	2722.74
587.031	2761.69
587.482	2937.04
587.933	3448.14
588.384	3164.89
588.834	2609.24
589.285	2210.84
589.736	2165.84
590.186	2176.24
590.637	2144.34
591.088	2096.64
591.538	2065.49
591.989	2045.14
592.439	2034.09
592.89	2024.79
593.34	2023.39
593.791	2041.14
594.241	2054.34
594.692	2071.24
595.142	2046.64
595.593	2004.99
596.043	2015.09
596.493	2054.79
596.943	2097.59
597.394	2071.99
597.844	2052.59
598.294	2080.49
598.744	2150.59
599.195	2246.99
599.645	2362.44
600.095	2491.94
600.545	2598.74
600.995	2715.59
601.445	2808.09
601.895	2954.69
602.345	3050.84
602.795	2994.34
603.245	2872.69
603.695	2693.54
604.145	2549.49
604.594	2431.59
605.044	2296.49
605.494	2154.79
605.944	2053.04
606.393	2014.04
606.843	1987.19
607.293	1990.19
607.743	1982.84
608.192	1997.24
608.642	2002.09
609.091	2002.74
609.541	1998.24
609.99	1991.04
610.44	1952.19
610.889	1930.64
611.339	1911.14
611.788	1895.89
612.238	1917.84
612.687	1933.49
613.136	1960.49
613.586	1988.69
614.035	1993.69
614.484	2022.44
614.933	2031.04
615.383	1972.19
615.832	1921.54
616.281	1880.79
616.73	1825.49
617.179	1782.59
617.628	1737.99
618.077	1705.19
618.526	1681.04
618.975	1676.14
619.424	1631.99
619.873	1652.14
620.322	1630.54
620.771	1635.24
621.22	1615.79
621.669	1583.04
622.118	1568.99
622.567	1555.79
623.015	1523.29
623.464	1524.59
623.913	1500.19
624.361	1493.44
624.81	1494.44
625.259	1493.84
625.707	1474.84
626.156	1480.64
626.604	1496.49
627.053	1503.19
627.501	1495.09
627.95	1512.84
628.398	1528.19
628.847	1514.54
629.295	1520.44
629.744	1536.84
630.192	1575.79
630.64	1678.44
631.089	1836.89
631.537	1936.04
631.985	1936.19
632.433	2008.49
632.881	2005.54
633.33	2421.39
633.778	2636.14
634.226	1855.14
634.674	1725.29
635.122	1709.79
635.57	1732.84
636.018	2022.39
636.466	1647.49
636.914	1459.24
637.362	1462.74
637.81	1483.79
638.258	1517.54
638.705	1529.69
639.153	1582.29
639.601	1590.44
640.049	1615.64
640.497	1669.29
640.944	1704.29
641.392	1625.29
641.84	1535.89
642.287	1475.09
642.735	1450.54
643.182	1434.49
643.63	1440.34
644.078	1447.74
644.525	1463.94
644.973	1500.74
645.42	1509.49
645.867	1548.54
646.315	1570.79
646.762	1621.34
647.21	1656.64
647.657	1742.09
648.104	1819.54
648.551	1870.99
648.999	2032.04
649.446	2222.39
649.893	2495.64
650.34	2931.34
650.787	3622.19
651.234	4691.64
651.682	6505.19
652.129	9271.84
652.576	13264.54
653.023	15535.79
653.47	15538.99
653.917	15539.04
654.363	15538.94
654.81	15535.94
655.257	15536.59
655.704	15540.39
656.151	10237.59
656.598	6667.49
657.044	4753.59
657.491	3691.64
657.938	2993.79
658.385	2521.34
658.831	2242.94
659.278	2009.39
659.724	1836.69
660.171	1709.09
660.618	1586.89
661.064	1502.89
661.511	1442.74
661.957	1396.54
662.404	1374.94
662.85	1355.04
663.296	1335.64
663.743	1313.79
664.189	1301.24
664.635	1289.74
665.082	1260.09
665.528	1245.79
665.974	1226.84
666.42	1210.74
666.867	1233.74
667.313	1231.09
667.759	1283.14
668.205	1278.99
668.651	1292.09
669.097	1253.79
669.543	1381.29
669.989	1290.49
670.435	1139.94
670.881	1133.94
671.327	1174.49
671.773	1258.29
672.219	1354.69
672.665	1433.74
673.11	1493.49
673.556	1507.44
674.002	1541.09
674.448	1564.19
674.893	1319.94
675.339	1158.59
675.785	1062.74
676.23	1013.79
676.676	978.14
677.122	951.74
677.567	931.69
678.013	902.19
678.458	900.94
678.904	891.59
679.349	878.79
679.794	879.09
680.24	875.64
680.685	865.04
681.131	883.29
681.576	873.29
682.021	885.09
682.466	885.69
682.912	898.84
683.357	937.64
683.802	1018.14
684.247	1109.94
684.692	1189.09
685.137	1235.89
685.583	1250.74
686.028	1318.74
686.473	1250.34
686.918	1079.64
687.363	984.54
687.807	941.64
688.252	900.69
688.697	863.84
689.142	841.69
689.587	842.79
690.032	859.39
690.477	890.09
690.921	940.99
691.366	981.49
691.811	1028.59
692.255	1109.74
692.7	1342.69
693.145	1938.49
693.589	2980.34
694.034	3536.14
694.478	3757.39
694.923	3454.99
695.367	4935.19
695.812	2974.39
696.256	1269.24
696.701	922.99
697.145	856.29
697.59	830.29
698.034	818.34
698.478	813.04
698.922	818.09
699.367	838.74
699.811	885.64
700.255	960.39
700.699	1041.44
701.143	1132.94
701.588	1191.54
702.032	1248.49
702.476	1282.09
702.92	1355.29
703.364	1756.34
703.808	2725.04
704.252	3389.04
704.696	3562.94
705.14	3379.34
705.584	4671.04
706.027	2561.99
706.471	1285.24
706.915	964.29
707.359	860.44
707.803	811.09
708.246	785.59
708.69	775.64
709.134	772.89
709.577	762.59
710.021	773.64
710.465	771.24
710.908	772.09
711.352	801.14
711.795	882.14
712.239	946.59
712.682	975.79
713.126	973.84
713.569	1084.69
714.012	886.29
714.456	792.04
714.899	738.09
715.342	687.04
715.786	659.14
716.229	639.09
716.672	631.19
717.115	632.19
717.558	644.14
718.002	651.99
718.445	685.74
718.888	721.79
719.331	732.54
719.774	747.19
720.217	723.29
720.66	685.54
721.103	658.19
721.546	619.14
721.989	604.59
722.432	595.44
722.874	594.09
723.317	606.69
723.76	663.54
724.203	808.64
724.645	1079.94
725.088	1261.19
725.531	1231.79
725.974	1351.49
726.416	1215.34
726.859	752.34
727.301	623.24
727.744	590.19
728.187	588.79
728.629	607.79
729.071	630.64
729.514	657.54
729.956	686.59
730.399	691.89
730.841	690.39
731.283	677.14
731.726	657.19
732.168	671.44
732.61	703.94
733.053	750.59
733.495	842.44
733.937	933.04
734.379	1108.59
734.821	1409.99
735.263	2234.84
735.705	4024.64
736.148	5897.29
736.59	5879.19
737.032	6403.84
737.474	5268.34
737.916	2007.04
738.357	1061.74
738.799	819.14
739.241	753.89
739.683	759.09
740.125	768.99
740.567	772.14
741.008	811.34
741.45	847.04
741.892	863.64
