Data from MSPlasma+Separation6_Subt14_10-15-06-958.txt Node
Date: Fri Jul 21 10:15:06 EDT 2017
User: Ender
Spectrometer: HR+D1039
Trigger mode: 0
Integration Time (sec): 6.430000E-3
Scans to average: 20
Electric dark correction enabled: true
Nonlinearity correction enabled: false
Boxcar width: 0
XAxis mode: Wavelengths
Number of Pixels in Spectrum: 2048
>>>>>Begin Spectral Data<<<<<
187.836	-2.92
188.309	-2.92
188.782	-2.92
189.255	2.58
189.728	0.98
190.201	1.23
190.674	-0.07
191.147	2.43
191.619	-2.62
192.092	-3.07
192.565	-3.82
193.038	2.73
193.511	1.13
193.984	-2.42
194.456	0.43
194.929	2.78
195.402	-0.27
195.874	0.83
196.347	4.58
196.82	1.18
197.292	-2.42
197.765	-0.67
198.237	-2.37
198.71	-6.57
199.182	-1.37
199.655	2.48
200.127	1.28
200.6	-0.52
201.072	0.83
201.544	-3.12
202.017	6.23
202.489	2.28
202.961	2.23
203.433	-0.92
203.906	0.08
204.378	0.18
204.85	3.98
205.322	-1.42
205.794	3.58
206.266	0.63
206.739	-0.77
207.211	-1.32
207.683	-0.82
208.155	1.68
208.627	3.18
209.099	5.93
209.57	-0.07
210.042	4.63
210.514	2.53
210.986	14.63
211.458	18.53
211.93	14.38
212.402	0.88
212.873	-4.17
213.345	-3.77
213.817	1.48
214.288	-3.22
214.76	-1.07
215.232	1.63
215.703	2.48
216.175	1.98
216.646	0.53
217.118	1.93
217.589	0.83
218.061	3.93
218.532	3.53
219.004	10.38
219.475	17.13
219.946	25.83
220.418	35.68
220.889	25.38
221.36	12.78
221.832	9.43
222.303	7.83
222.774	3.98
223.245	6.98
223.717	5.23
224.188	8.18
224.659	3.63
225.13	1.63
225.601	2.48
226.072	5.13
226.543	3.68
227.014	4.33
227.485	7.93
227.956	8.68
228.427	11.08
228.898	11.18
229.369	8.33
229.839	10.13
230.31	11.98
230.781	11.38
231.252	18.43
231.722	21.43
232.193	28.53
232.664	34.83
233.135	54.18
233.605	56.88
234.076	43.08
234.546	39.13
235.017	47.83
235.487	48.53
235.958	39.53
236.428	60.28
236.899	99.73
237.369	112.78
237.84	82.63
238.31	96.63
238.78	103.83
239.251	98.53
239.721	102.48
240.191	78.03
240.662	47.83
241.132	38.73
241.602	45.78
242.072	67.18
242.542	83.63
243.013	56.48
243.483	52.98
243.953	36.98
244.423	36.78
244.893	46.18
245.363	56.18
245.833	53.08
246.303	61.28
246.773	75.63
247.243	78.13
247.712	87.08
248.182	101.33
248.652	107.28
249.122	159.68
249.592	296.98
250.061	454.88
250.531	722.13
251.001	544.48
251.471	455.73
251.94	341.38
252.41	185.43
252.879	126.88
253.349	98.38
253.818	80.53
254.288	72.73
254.757	70.43
255.227	96.68
255.696	78.23
256.166	70.58
256.635	77.33
257.105	95.43
257.574	119.78
258.043	122.63
258.513	221.58
258.982	283.78
259.451	196.63
259.92	194.68
260.389	185.73
260.859	133.28
261.328	153.63
261.797	226.28
262.266	196.43
262.735	94.53
263.204	56.98
263.673	54.33
264.142	43.88
264.611	51.13
265.08	59.68
265.549	59.18
266.018	49.13
266.487	50.88
266.955	49.88
267.424	59.23
267.893	64.18
268.362	56.83
268.83	56.48
269.299	57.98
269.768	68.03
270.236	83.63
270.705	91.08
271.174	84.08
271.642	95.88
272.111	113.03
272.579	177.23
273.048	274.63
273.516	344.28
273.985	357.13
274.453	268.68
274.922	160.78
275.39	105.73
275.858	94.58
276.327	79.78
276.795	85.88
277.263	92.98
277.731	124.08
278.2	241.68
278.668	316.23
279.136	243.53
279.604	159.53
280.072	97.88
280.54	83.23
281.008	90.18
281.477	90.38
281.945	89.63
282.413	89.63
282.881	93.58
283.348	91.83
283.816	96.63
284.284	105.38
284.752	106.53
285.22	106.08
285.688	114.73
286.156	189.78
286.623	499.13
287.091	982.13
287.559	509.83
288.026	194.33
288.494	129.58
288.962	106.43
289.429	95.33
289.897	97.78
290.364	88.38
290.832	93.38
291.3	96.53
291.767	95.13
292.234	101.33
292.702	108.13
293.169	115.18
293.637	119.38
294.104	114.03
294.571	107.43
295.039	108.18
295.506	105.03
295.973	115.23
296.44	103.13
296.908	118.13
297.375	139.78
297.842	133.58
298.309	115.48
298.776	116.63
299.243	120.13
299.71	116.58
300.177	117.33
300.644	130.78
301.111	138.73
301.578	131.28
302.045	120.23
302.512	119.68
302.979	123.63
303.446	127.38
303.913	130.83
304.379	137.73
304.846	158.58
305.313	173.63
305.78	204.53
306.246	250.63
306.713	263.83
307.18	230.33
307.646	251.58
308.113	216.13
308.579	173.43
309.046	175.28
309.512	171.83
309.979	161.48
310.445	153.03
310.912	162.43
311.378	156.88
311.845	149.93
312.311	149.58
312.777	147.28
313.244	162.38
313.71	167.78
314.176	181.63
314.642	207.78
315.109	243.48
315.575	223.78
316.041	205.48
316.507	189.63
316.973	209.98
317.439	209.23
317.905	230.48
318.371	228.48
318.837	213.38
319.303	230.78
319.769	209.28
320.235	231.18
320.701	267.28
321.167	284.63
321.633	343.88
322.099	470.93
322.564	633.33
323.03	493.53
323.496	345.28
323.962	325.98
324.427	301.38
324.893	268.98
325.359	257.78
325.824	223.83
326.29	239.88
326.755	243.33
327.221	240.73
327.686	254.58
328.152	227.93
328.617	222.98
329.083	221.43
329.548	236.83
330.014	243.38
330.479	264.53
330.944	309.53
331.41	350.18
331.875	335.13
332.34	352.33
332.805	403.43
333.271	509.88
333.736	674.08
334.201	605.93
334.666	452.38
335.131	512.08
335.596	407.83
336.061	428.93
336.526	428.23
336.991	377.43
337.456	411.93
337.921	329.13
338.386	268.63
338.851	246.48
339.316	225.18
339.781	225.83
340.246	225.08
340.711	226.03
341.175	231.58
341.64	241.68
342.105	239.83
342.569	260.13
343.034	272.48
343.499	282.53
343.963	277.58
344.428	269.28
344.893	272.53
345.357	281.88
345.822	272.68
346.286	276.03
346.751	289.73
347.215	288.48
347.679	291.23
348.144	322.83
348.608	316.88
349.073	326.88
349.537	357.93
350.001	356.53
350.465	329.53
350.93	321.63
351.394	317.33
351.858	318.23
352.322	335.23
352.786	336.53
353.25	328.43
353.715	333.28
354.179	353.18
354.643	370.08
355.107	371.33
355.571	393.13
356.035	404.58
356.498	389.38
356.962	413.88
357.426	414.73
357.89	366.73
358.354	353.68
358.818	345.73
359.281	356.93
359.745	372.68
360.209	371.63
360.673	374.18
361.136	374.33
361.6	373.88
362.064	402.78
362.527	411.78
362.991	407.28
363.454	403.28
363.918	412.33
364.381	402.28
364.845	394.43
365.308	386.98
365.772	388.73
366.235	395.48
366.698	419.63
367.162	499.73
367.625	556.18
368.088	452.18
368.552	414.48
369.015	418.33
369.478	449.68
369.941	453.38
370.404	461.48
370.867	494.08
371.331	496.33
371.794	504.68
372.257	558.33
372.72	592.63
373.183	567.73
373.646	570.28
374.109	568.98
374.572	652.63
375.035	767.28
375.497	582.48
375.96	475.88
376.423	462.83
376.886	457.83
377.349	466.03
377.811	475.63
378.274	477.98
378.737	485.83
379.199	504.38
379.662	508.08
380.125	543.28
380.587	594.43
381.05	629.68
381.512	631.23
381.975	610.08
382.437	601.58
382.9	599.18
383.362	604.73
383.825	651.08
384.287	806.88
384.75	892.08
385.212	796.33
385.674	658.73
386.136	605.43
386.599	602.98
387.061	625.83
387.523	647.13
387.985	654.23
388.447	680.23
388.91	753.13
389.372	897.38
389.834	850.63
390.296	711.58
390.758	721.48
391.22	740.43
391.682	905.43
392.144	1391.83
392.606	1303.73
393.068	775.88
393.529	712.98
393.991	692.28
394.453	677.38
394.915	711.38
395.377	861.88
395.838	1055.28
396.3	749.43
396.762	589.88
397.224	568.73
397.685	554.53
398.147	555.13
398.608	573.93
399.07	575.38
399.531	565.18
399.993	579.78
400.454	582.28
400.916	579.48
401.377	600.98
401.839	605.08
402.3	605.13
402.762	634.03
403.223	698.68
403.684	706.43
404.145	652.18
404.607	639.53
405.068	635.43
405.529	658.58
405.99	658.98
406.451	667.18
406.913	646.28
407.374	663.33
407.835	667.18
408.296	684.28
408.757	693.58
409.218	716.43
409.679	715.68
410.14	738.23
410.601	756.43
411.062	793.13
411.522	914.33
411.983	995.58
412.444	855.33
412.905	754.88
413.366	767.88
413.826	787.68
414.287	880.18
414.748	1046.48
415.208	1065.38
415.669	891.58
416.13	816.43
416.59	802.08
417.051	828.83
417.511	869.33
417.972	927.63
418.432	1003.48
418.893	1105.08
419.353	1046.28
419.814	810.33
420.274	725.33
420.734	728.63
421.195	775.68
421.655	803.53
422.115	774.68
422.576	760.03
423.036	759.43
423.496	783.48
423.956	822.28
424.416	875.73
424.876	993.68
425.336	992.73
425.797	973.28
426.257	978.78
426.717	929.43
427.177	860.33
427.637	881.58
428.097	928.68
428.556	972.88
429.016	1053.78
429.476	1052.28
429.936	1015.03
430.396	986.98
430.856	991.23
431.315	1025.98
431.775	1103.13
432.235	1167.33
432.694	1180.08
433.154	1106.93
433.614	1069.98
434.073	1040.73
434.533	949.23
434.993	914.68
435.452	918.63
435.912	904.73
436.371	908.33
436.83	906.33
437.29	911.33
437.749	870.48
438.209	857.88
438.668	873.03
439.127	874.78
439.587	858.93
440.046	829.43
440.505	844.23
440.964	847.18
441.424	866.28
441.883	882.23
442.342	839.28
442.801	809.38
443.26	828.48
443.719	822.93
444.178	813.58
444.637	826.43
445.096	821.73
445.555	846.68
446.014	845.83
446.473	814.18
446.932	817.28
447.391	826.23
447.849	845.98
448.308	835.23
448.767	857.08
449.226	885.48
449.685	879.13
450.143	923.43
450.602	931.58
451.061	882.78
451.519	898.23
451.978	909.53
452.436	941.08
452.895	901.58
453.353	873.33
453.812	883.78
454.27	877.63
454.729	855.33
455.187	863.63
455.646	863.48
456.104	873.33
456.562	863.03
457.021	861.68
457.479	823.63
457.937	849.18
458.395	867.68
458.854	856.63
459.312	843.83
459.77	861.23
460.228	864.13
460.686	880.63
461.144	877.53
461.602	873.78
462.06	874.58
462.518	894.48
462.976	897.48
463.434	896.73
463.892	910.48
464.35	929.18
464.808	941.53
465.266	951.53
465.724	971.83
466.181	970.83
466.639	968.48
467.097	1003.98
467.555	1034.98
468.012	1026.48
468.47	1043.53
468.928	1070.68
469.385	1103.98
469.843	1111.78
470.3	1106.63
470.758	1140.38
471.215	1166.18
471.673	1183.48
472.13	1212.48
472.588	1231.33
473.045	1237.48
473.503	1257.83
473.96	1316.93
474.417	1325.18
474.875	1392.33
475.332	1438.43
475.789	1457.83
476.246	1501.08
476.704	1565.28
477.161	1604.53
477.618	1650.28
478.075	1743.08
478.532	1868.53
478.989	2018.88
479.446	2220.58
479.903	2353.98
480.36	2565.73
480.817	2725.38
481.274	2933.58
481.731	3198.43
482.188	3453.38
482.645	3722.08
483.102	3936.73
483.558	4227.43
484.015	4423.73
484.472	4438.08
484.929	4293.98
485.385	4112.43
485.842	4008.68
486.299	3795.18
486.755	3456.03
487.212	3078.93
487.668	2788.83
488.125	2592.18
488.582	2395.43
489.038	2300.63
489.494	2224.03
489.951	2161.23
490.407	2115.53
490.864	2075.78
491.32	2024.13
491.776	2013.63
492.233	2005.68
492.689	1975.28
493.145	1945.73
493.602	1937.93
494.058	1975.38
494.514	2004.53
494.97	2012.28
495.426	2036.78
495.882	2046.03
496.338	2051.88
496.794	2121.78
497.251	2138.93
497.707	2134.83
498.163	2147.38
498.618	2151.18
499.074	2162.23
499.53	2196.33
499.986	2242.63
500.442	2261.18
500.898	2257.83
501.354	2294.53
501.809	2299.58
502.265	2325.93
502.721	2439.08
503.177	2502.83
503.632	2387.38
504.088	2412.13
504.543	2609.93
504.999	2450.03
505.455	2196.28
505.91	2079.43
506.366	2062.78
506.821	2052.88
507.277	2037.73
507.732	2041.03
508.187	2042.68
508.643	2062.48
509.098	2075.28
509.553	2097.38
510.009	2120.38
510.464	2147.58
510.919	2183.83
511.375	2211.13
511.83	2231.78
512.285	2266.63
512.74	2320.53
513.195	2350.63
513.65	2400.33
514.105	2442.13
514.56	2449.48
515.015	2489.48
515.47	2523.48
515.925	2499.18
516.38	2487.68
516.835	2482.58
517.29	2478.33
517.745	2483.23
518.2	2448.43
518.655	2382.83
519.109	2346.28
519.564	2320.48
520.019	2310.73
520.474	2275.43
520.928	2262.98
521.383	2262.18
521.838	2251.33
522.292	2217.13
522.747	2196.18
523.201	2184.18
523.656	2162.98
524.11	2161.48
524.565	2160.33
525.019	2160.28
525.474	2172.43
525.928	2157.98
526.382	2135.78
526.837	2124.83
527.291	2136.78
527.745	2112.28
528.2	2114.43
528.654	2099.88
529.108	2104.18
529.562	2109.68
530.016	2099.43
530.47	2119.28
530.925	2118.88
531.379	2127.78
531.833	2145.13
532.287	2127.13
532.741	2114.33
533.195	2116.68
533.649	2116.83
534.103	2128.73
534.556	2105.03
535.01	2125.68
535.464	2119.03
535.918	2131.28
536.372	2131.88
536.826	2129.58
537.279	2113.38
537.733	2111.53
538.187	2118.18
538.64	2132.28
539.094	2141.13
539.548	2171.53
540.001	2163.23
540.455	2172.73
540.908	2184.48
541.362	2201.13
541.815	2226.43
542.269	2269.63
542.722	2267.23
543.175	2288.68
543.629	2310.58
544.082	2318.43
544.536	2355.03
544.989	2331.53
545.442	2356.78
545.895	2361.58
546.349	2352.38
546.802	2359.08
547.255	2369.78
547.708	2377.93
548.161	2395.33
548.614	2400.18
549.067	2409.03
549.52	2398.78
549.973	2367.18
550.426	2356.38
550.879	2331.88
551.332	2327.88
551.785	2356.93
552.238	2371.93
552.691	2386.03
553.144	2409.88
553.596	2454.73
554.049	2480.78
554.502	2521.53
554.955	2560.88
555.407	2611.08
555.86	2598.08
556.313	2553.78
556.765	2531.43
557.218	2491.38
557.67	2486.58
558.123	2454.13
558.576	2440.63
559.028	2453.43
559.48	2477.28
559.933	2462.18
560.385	2374.88
560.838	2299.98
561.29	2239.33
561.742	2229.13
562.195	2186.73
562.647	2164.13
563.099	2169.03
563.551	2158.08
564.004	2179.08
564.456	2156.18
564.908	2122.88
565.36	2070.63
565.812	2032.33
566.264	2008.28
566.716	1980.23
567.168	1949.68
567.62	1965.28
568.072	1945.38
568.524	1920.23
568.976	1916.98
569.428	1890.93
569.88	1889.53
570.332	1902.93
570.784	1904.68
571.235	1884.53
571.687	1902.48
572.139	1903.73
572.59	1925.43
573.042	1933.13
573.494	1940.68
573.945	1914.68
574.397	1858.08
574.849	1860.48
575.3	1876.93
575.752	1846.83
576.203	1823.28
576.655	1845.38
577.106	1809.03
577.557	1800.33
578.009	1791.23
578.46	1808.83
578.912	1787.53
579.363	1794.98
579.814	1780.88
580.265	1784.88
580.717	1786.73
581.168	1777.83
581.619	1799.03
582.07	1803.73
582.521	1804.98
582.972	1798.48
583.423	1820.13
583.875	1859.63
584.326	1952.43
584.777	2116.18
585.227	2312.53
585.678	2462.58
586.129	2505.08
586.58	2567.43
587.031	2572.83
587.482	2739.18
587.933	3205.33
588.384	2965.48
588.834	2441.68
589.285	2088.23
589.736	2043.83
590.186	2032.73
590.637	2026.18
591.088	1973.48
591.538	1950.18
591.989	1932.68
592.439	1919.58
592.89	1902.13
593.34	1916.13
593.791	1925.98
594.241	1933.93
594.692	1957.53
595.142	1943.38
595.593	1901.93
596.043	1902.58
596.493	1930.08
596.943	1979.33
597.394	1953.58
597.844	1939.68
598.294	1970.38
598.744	2034.93
599.195	2120.88
599.645	2241.83
600.095	2350.68
600.545	2456.73
600.995	2574.88
601.445	2669.93
601.895	2803.08
602.345	2887.08
602.795	2843.08
603.245	2698.88
603.695	2547.98
604.145	2420.28
604.594	2302.08
605.044	2178.73
605.494	2037.03
605.944	1939.68
606.393	1894.08
606.843	1880.93
607.293	1889.63
607.743	1861.38
608.192	1884.48
608.642	1896.33
609.091	1888.38
609.541	1894.78
609.99	1891.78
610.44	1844.98
610.889	1825.53
611.339	1805.93
611.788	1785.88
612.238	1817.63
612.687	1829.63
613.136	1856.93
613.586	1887.68
614.035	1886.58
614.484	1914.53
614.933	1915.78
615.383	1880.58
615.832	1822.23
616.281	1765.93
616.73	1724.68
617.179	1678.53
617.628	1647.28
618.077	1612.53
618.526	1583.33
618.975	1582.83
619.424	1548.53
619.873	1558.93
620.322	1546.63
620.771	1544.93
621.22	1529.03
621.669	1489.43
622.118	1474.58
622.567	1459.33
623.015	1437.33
623.464	1440.63
623.913	1422.28
624.361	1411.83
624.81	1420.98
625.259	1409.88
625.707	1388.68
626.156	1397.83
626.604	1409.58
627.053	1418.98
627.501	1414.33
627.95	1415.53
628.398	1450.63
628.847	1429.73
629.295	1430.68
629.744	1439.38
630.192	1485.68
630.64	1587.33
631.089	1737.43
631.537	1807.83
631.985	1819.73
632.433	1905.08
632.881	1876.38
633.33	2252.88
633.778	2453.13
634.226	1742.23
634.674	1614.88
635.122	1606.73
635.57	1630.88
636.018	1887.23
636.466	1541.58
636.914	1376.38
637.362	1386.93
637.81	1402.88
638.258	1439.68
638.705	1451.98
639.153	1491.08
639.601	1509.23
640.049	1521.33
640.497	1576.78
640.944	1604.93
641.392	1544.78
641.84	1450.53
642.287	1390.08
642.735	1377.58
643.182	1356.23
643.63	1363.13
644.078	1364.33
644.525	1384.73
644.973	1417.08
645.42	1438.43
645.867	1457.88
646.315	1466.78
646.762	1535.13
647.21	1567.58
647.657	1655.88
648.104	1723.28
648.551	1769.88
648.999	1915.88
649.446	2108.83
649.893	2362.68
650.34	2775.13
650.787	3434.18
651.234	4465.98
651.682	6223.53
652.129	8852.63
652.576	12702.33
653.023	15506.28
653.47	15538.23
653.917	15538.28
654.363	15538.18
654.81	15535.18
655.257	15535.83
655.704	15412.58
656.151	9597.33
656.598	6213.68
657.044	4443.98
657.491	3454.88
657.938	2821.83
658.385	2393.98
658.831	2115.23
659.278	1884.13
659.724	1726.03
660.171	1618.93
660.618	1499.73
661.064	1414.43
661.511	1368.73
661.957	1327.48
662.404	1297.33
662.85	1282.93
663.296	1271.18
663.743	1233.13
664.189	1221.03
664.635	1218.78
665.082	1199.83
665.528	1184.43
665.974	1156.13
666.42	1144.33
666.867	1161.23
667.313	1164.93
667.759	1213.03
668.205	1213.03
668.651	1221.68
669.097	1194.13
669.543	1294.28
669.989	1229.58
670.435	1091.33
670.881	1072.68
671.327	1119.38
671.773	1202.38
672.219	1281.43
672.665	1365.03
673.11	1408.53
673.556	1420.63
674.002	1467.28
674.448	1477.68
674.893	1251.33
675.339	1100.03
675.785	1006.33
676.23	961.53
676.676	925.48
677.122	902.93
677.567	882.78
678.013	852.53
678.458	847.98
678.904	846.33
679.349	838.23
679.794	835.08
680.24	830.43
680.685	819.13
681.131	825.83
681.576	831.03
682.021	835.33
682.466	840.33
682.912	845.68
683.357	892.18
683.802	970.88
684.247	1057.53
684.692	1124.38
685.137	1172.68
685.583	1183.58
686.028	1253.78
686.473	1182.33
686.918	1019.53
687.363	931.38
687.807	892.98
688.252	850.98
688.697	819.98
689.142	796.83
689.587	796.38
690.032	812.93
690.477	852.73
690.921	887.13
691.366	933.23
691.811	969.08
692.255	1053.83
692.7	1288.18
693.145	1865.13
693.589	2831.63
694.034	3364.93
694.478	3563.13
694.923	3240.33
695.367	4616.93
695.812	2784.43
696.256	1187.88
696.701	871.28
697.145	814.73
697.59	782.43
698.034	770.68
698.478	777.23
698.922	783.18
699.367	797.13
699.811	841.33
700.255	915.88
700.699	986.03
701.143	1069.13
701.588	1129.83
702.032	1178.73
702.476	1211.38
702.92	1282.88
703.364	1696.78
703.808	2604.73
704.252	3233.03
704.696	3383.28
705.14	3171.18
705.584	4370.88
706.027	2423.18
706.471	1215.98
706.915	914.03
707.359	810.58
707.803	763.23
708.246	736.83
708.69	733.48
709.134	726.53
709.577	722.33
710.021	730.28
710.465	732.83
710.908	724.38
711.352	760.68
711.795	847.08
712.239	904.68
712.682	934.73
713.126	919.38
713.569	1015.08
714.012	842.68
714.456	740.03
714.899	691.43
715.342	655.28
715.786	626.88
716.229	610.18
716.672	593.18
717.115	596.93
717.558	603.43
718.002	626.38
718.445	646.03
718.888	683.68
719.331	693.68
719.774	708.18
720.217	688.63
720.66	652.78
721.103	618.18
721.546	585.53
721.989	576.93
722.432	565.78
722.874	566.43
723.317	576.58
723.76	624.88
724.203	772.33
724.645	1020.33
725.088	1199.98
725.531	1169.23
725.974	1281.13
726.416	1144.63
726.859	719.33
727.301	586.73
727.744	556.88
728.187	561.88
728.629	574.08
729.071	594.18
729.514	625.03
729.956	648.13
730.399	653.78
730.841	654.08
731.283	635.78
731.726	616.63
732.168	638.33
732.61	660.43
733.053	724.88
733.495	800.18
733.937	884.53
734.379	1041.08
734.821	1329.08
735.263	2135.28
735.705	3847.78
736.148	5607.48
736.59	5544.18
737.032	5989.13
737.474	4915.93
737.916	1888.48
738.357	1004.58
738.799	772.08
739.241	716.03
739.683	717.13
740.125	730.18
740.567	727.98
741.008	766.73
741.45	800.18
741.892	828.98
742.334	815.83
742.775	821.23
743.217	775.33
