Data from MSPlasma+Separation6_Subt14_10-15-17-457.txt Node
Date: Fri Jul 21 10:15:17 EDT 2017
User: Ender
Spectrometer: HR+D1039
Trigger mode: 0
Integration Time (sec): 6.430000E-3
Scans to average: 20
Electric dark correction enabled: true
Nonlinearity correction enabled: false
Boxcar width: 0
XAxis mode: Wavelengths
Number of Pixels in Spectrum: 2048
>>>>>Begin Spectral Data<<<<<
187.836	-0.76
188.309	-0.76
188.782	-0.76
189.255	5.14
189.728	0.14
190.201	-6.06
190.674	2.74
191.147	-1.36
191.619	-1.51
192.092	0.64
192.565	-3.31
193.038	2.44
193.511	5.14
193.984	0.24
194.456	-1.81
194.929	-0.46
195.402	-2.96
195.874	1.74
196.347	3.94
196.82	-0.26
197.292	-6.51
197.765	-2.01
198.237	-2.71
198.71	-3.56
199.182	0.54
199.655	2.29
200.127	3.49
200.6	0.44
201.072	5.39
201.544	-2.41
202.017	-0.86
202.489	1.29
202.961	-4.66
203.433	-2.46
203.906	1.94
204.378	4.84
204.85	5.09
205.322	1.69
205.794	8.59
206.266	3.99
206.739	4.44
207.211	-0.91
207.683	2.79
208.155	1.49
208.627	-1.01
209.099	2.34
209.57	3.74
210.042	4.24
210.514	4.44
210.986	16.94
211.458	26.89
211.93	11.69
212.402	4.24
212.873	-0.66
213.345	-4.71
213.817	2.19
214.288	-0.71
214.76	5.59
215.232	2.04
215.703	0.34
216.175	5.89
216.646	4.09
217.118	2.39
217.589	-3.96
218.061	3.19
218.532	2.59
219.004	9.14
219.475	13.64
219.946	26.84
220.418	38.39
220.889	21.39
221.36	13.04
221.832	2.74
222.303	8.49
222.774	6.69
223.245	-0.06
223.717	-0.21
224.188	5.49
224.659	6.04
225.13	-0.21
225.601	3.74
226.072	3.74
226.543	8.14
227.014	4.24
227.485	11.64
227.956	9.69
228.427	12.29
228.898	12.19
229.369	10.59
229.839	4.84
230.31	11.79
230.781	13.04
231.252	13.29
231.722	24.94
232.193	36.24
232.664	38.04
233.135	57.79
233.605	63.09
234.076	45.99
234.546	37.34
235.017	46.19
235.487	37.89
235.958	48.24
236.428	62.59
236.899	107.84
237.369	116.29
237.84	84.24
238.31	109.24
238.78	110.74
239.251	109.09
239.721	112.49
240.191	83.84
240.662	53.89
241.132	38.74
241.602	48.44
242.072	73.59
242.542	85.99
243.013	58.89
243.483	58.79
243.953	39.84
244.423	39.54
244.893	50.59
245.363	58.19
245.833	52.54
246.303	62.14
246.773	83.44
247.243	80.29
247.712	94.64
248.182	113.34
248.652	118.89
249.122	174.74
249.592	328.54
250.061	493.89
250.531	784.24
251.001	590.84
251.471	495.04
251.94	371.84
252.41	196.04
252.879	138.39
253.349	103.39
253.818	84.14
254.288	71.34
254.757	74.44
255.227	99.79
255.696	80.89
256.166	70.69
256.635	75.64
257.105	96.79
257.574	129.49
258.043	131.54
258.513	233.44
258.982	297.34
259.451	208.69
259.92	215.29
260.389	194.44
260.859	139.39
261.328	167.89
261.797	245.24
262.266	210.54
262.735	100.24
263.204	61.49
263.673	53.74
264.142	46.94
264.611	54.09
265.08	55.49
265.549	62.74
266.018	53.29
266.487	56.84
266.955	53.39
267.424	64.49
267.893	61.34
268.362	59.04
268.83	58.19
269.299	64.09
269.768	71.74
270.236	90.89
270.705	94.29
271.174	91.84
271.642	99.34
272.111	119.49
272.579	188.39
273.048	293.34
273.516	371.74
273.985	381.64
274.453	292.19
274.922	169.39
275.39	111.14
275.858	105.79
276.327	84.34
276.795	88.29
277.263	100.19
277.731	129.49
278.2	247.39
278.668	324.89
279.136	249.89
279.604	160.59
280.072	100.34
280.54	83.49
281.008	91.54
281.477	90.94
281.945	94.99
282.413	94.79
282.881	95.44
283.348	96.04
283.816	102.09
284.284	109.69
284.752	103.49
285.22	106.69
285.688	117.99
286.156	201.14
286.623	552.59
287.091	1091.94
287.559	557.64
288.026	210.24
288.494	135.34
288.962	111.69
289.429	105.64
289.897	102.39
290.364	91.44
290.832	92.04
291.3	94.29
291.767	101.54
292.234	102.59
292.702	105.84
293.169	116.34
293.637	126.14
294.104	118.24
294.571	116.84
295.039	113.24
295.506	113.14
295.973	115.74
296.44	110.19
296.908	121.14
297.375	142.59
297.842	137.29
298.309	123.34
298.776	116.64
299.243	127.24
299.71	121.79
300.177	113.64
300.644	135.29
301.111	151.34
301.578	132.79
302.045	124.84
302.512	124.09
302.979	128.64
303.446	140.09
303.913	141.09
304.379	144.04
304.846	161.69
305.313	181.19
305.78	206.94
306.246	258.39
306.713	272.04
307.18	239.44
307.646	266.74
308.113	232.94
308.579	180.34
309.046	178.44
309.512	180.44
309.979	166.24
310.445	156.59
310.912	157.99
311.378	162.19
311.845	160.09
312.311	154.64
312.777	153.94
313.244	164.19
313.71	170.79
314.176	186.29
314.642	209.44
315.109	248.94
315.575	233.04
316.041	211.29
316.507	195.79
316.973	219.39
317.439	214.39
317.905	241.49
318.371	232.74
318.837	223.99
319.303	236.99
319.769	216.59
320.235	238.89
320.701	278.64
321.167	302.99
321.633	360.19
322.099	504.79
322.564	686.69
323.03	528.44
323.496	369.84
323.962	350.29
324.427	325.49
324.893	281.79
325.359	270.09
325.824	230.54
326.29	249.64
326.755	250.09
327.221	250.64
327.686	261.04
328.152	236.44
328.617	226.54
329.083	228.29
329.548	244.19
330.014	254.84
330.479	273.09
330.944	321.29
331.41	368.49
331.875	352.39
332.34	363.49
332.805	424.09
333.271	544.74
333.736	722.49
334.201	642.74
334.666	477.79
335.131	542.19
335.596	425.64
336.061	456.24
336.526	454.89
336.991	395.64
337.456	433.19
337.921	340.14
338.386	279.44
338.851	252.69
339.316	233.74
339.781	231.49
340.246	230.59
340.711	225.19
341.175	241.49
341.64	245.59
342.105	250.39
342.569	261.59
343.034	277.84
343.499	286.19
343.963	274.44
344.428	273.49
344.893	276.69
345.357	287.74
345.822	278.64
346.286	283.44
346.751	301.84
347.215	294.84
347.679	300.29
348.144	324.44
348.608	320.24
349.073	334.94
349.537	368.79
350.001	364.64
350.465	335.84
350.93	328.29
351.394	326.59
351.858	328.04
352.322	336.19
352.786	344.34
353.25	335.99
353.715	335.79
354.179	356.59
354.643	373.64
355.107	387.24
355.571	405.49
356.035	414.64
356.498	396.94
356.962	428.34
357.426	422.89
357.89	379.69
358.354	357.29
358.818	356.24
359.281	362.64
359.745	383.14
360.209	373.84
360.673	384.84
361.136	382.64
361.6	383.24
362.064	411.69
362.527	419.79
362.991	420.59
363.454	413.94
363.918	416.54
364.381	415.79
364.845	405.19
365.308	394.54
365.772	392.34
366.235	405.94
366.698	423.14
367.162	518.34
367.625	576.54
368.088	463.69
368.552	421.79
369.015	430.84
369.478	459.29
369.941	469.54
370.404	481.54
370.867	505.79
371.331	516.44
371.794	519.74
372.257	588.34
372.72	620.14
373.183	584.84
373.646	596.09
374.109	594.34
374.572	699.74
375.035	810.29
375.497	614.99
375.96	487.69
376.423	465.39
376.886	469.24
377.349	474.54
377.811	484.19
378.274	483.59
378.737	497.14
379.199	511.84
379.662	531.64
380.125	565.69
380.587	625.14
381.05	659.64
381.512	657.39
381.975	632.79
382.437	628.89
382.9	634.74
383.362	633.54
383.825	673.89
384.287	851.29
384.75	951.74
385.212	843.29
385.674	687.29
386.136	629.49
386.599	617.24
387.061	646.74
387.523	668.14
387.985	674.34
388.447	694.29
388.91	779.74
389.372	951.54
389.834	897.49
390.296	735.59
390.758	735.99
391.22	758.94
391.682	935.84
392.144	1448.64
392.606	1343.14
393.068	792.99
393.529	725.34
393.991	708.29
394.453	691.14
394.915	730.44
395.377	877.89
395.838	1078.19
396.3	765.89
396.762	605.04
397.224	581.94
397.685	561.84
398.147	571.29
398.608	576.74
399.07	586.99
399.531	576.44
399.993	584.94
400.454	598.79
400.916	587.49
401.377	605.24
401.839	615.14
402.3	615.04
402.762	641.99
403.223	713.69
403.684	721.79
404.145	662.29
404.607	643.89
405.068	645.69
405.529	660.69
405.99	663.09
406.451	681.29
406.913	661.39
407.374	668.89
407.835	683.64
408.296	701.94
408.757	707.04
409.218	726.79
409.679	733.44
410.14	742.74
410.601	784.79
411.062	812.44
411.522	942.19
411.983	1028.29
412.444	879.59
412.905	772.54
413.366	774.49
413.826	803.79
414.287	890.59
414.748	1067.14
415.208	1084.04
415.669	900.99
416.13	828.84
416.59	805.14
417.051	835.19
417.511	876.24
417.972	937.54
418.432	1005.94
418.893	1131.04
419.353	1068.54
419.814	818.34
420.274	738.89
420.734	735.19
421.195	782.79
421.655	811.29
422.115	793.54
422.576	763.94
423.036	767.74
423.496	799.89
423.956	829.84
424.416	885.04
424.876	997.19
425.336	999.64
425.797	1004.59
426.257	997.74
426.717	932.14
427.177	875.54
427.637	914.44
428.097	953.34
428.556	997.69
429.016	1080.39
429.476	1073.19
429.936	1038.24
430.396	999.94
430.856	1015.49
431.315	1046.19
431.775	1121.94
432.235	1187.39
432.694	1203.19
433.154	1131.79
433.614	1087.69
434.073	1053.69
434.533	964.29
434.993	934.99
435.452	939.39
435.912	928.79
436.371	917.04
436.83	927.34
437.29	934.34
437.749	883.14
438.209	865.64
438.668	885.89
439.127	891.89
439.587	875.69
440.046	835.49
440.505	857.59
440.964	856.69
441.424	884.69
441.883	899.34
442.342	852.29
442.801	819.84
443.26	845.69
443.719	843.49
444.178	834.39
444.637	840.19
445.096	845.04
445.555	856.49
446.014	852.79
446.473	829.74
446.932	828.79
447.391	846.69
447.849	860.89
448.308	855.24
448.767	870.34
449.226	896.09
449.685	894.59
450.143	933.04
450.602	936.79
451.061	897.09
451.519	911.69
451.978	939.44
452.436	972.69
452.895	920.39
453.353	889.89
453.812	898.39
454.27	895.24
454.729	859.39
455.187	870.04
455.646	876.04
456.104	886.34
456.562	877.69
457.021	867.89
457.479	843.24
457.937	859.59
458.395	880.04
458.854	876.74
459.312	860.39
459.77	870.94
460.228	880.69
460.686	891.34
461.144	904.54
461.602	890.04
462.06	898.19
462.518	909.19
462.976	903.39
463.434	915.19
463.892	923.69
464.35	944.94
464.808	948.94
465.266	965.49
465.724	970.54
466.181	982.69
466.639	974.74
467.097	1017.99
467.555	1052.79
468.012	1038.84
468.47	1051.29
468.928	1088.29
469.385	1111.69
469.843	1126.29
470.3	1117.19
470.758	1158.39
471.215	1173.09
471.673	1198.69
472.13	1230.84
472.588	1258.99
473.045	1249.94
473.503	1274.14
473.96	1331.74
474.417	1348.64
474.875	1410.79
475.332	1456.54
475.789	1481.29
476.246	1526.09
476.704	1590.84
477.161	1619.29
477.618	1685.94
478.075	1753.74
478.532	1901.24
478.989	2041.74
479.446	2256.89
479.903	2393.54
480.36	2612.09
480.817	2788.49
481.274	2990.94
481.731	3274.34
482.188	3509.94
482.645	3804.54
483.102	4028.84
483.558	4319.09
484.015	4538.94
484.472	4543.89
484.929	4399.74
485.385	4197.44
485.842	4086.29
486.299	3885.14
486.755	3513.79
487.212	3152.09
487.668	2836.89
488.125	2645.94
488.582	2427.44
489.038	2327.84
489.494	2256.89
489.951	2196.14
490.407	2134.19
490.864	2118.79
491.32	2064.49
491.776	2025.49
492.233	2024.54
492.689	2002.04
493.145	1974.69
493.602	1958.14
494.058	2008.69
494.514	2056.39
494.97	2043.64
495.426	2065.24
495.882	2075.09
496.338	2093.99
496.794	2170.94
497.251	2190.59
497.707	2188.39
498.163	2200.79
498.618	2186.29
499.074	2204.09
499.53	2258.34
499.986	2287.69
500.442	2317.89
500.898	2305.84
501.354	2351.09
501.809	2351.04
502.265	2392.09
502.721	2510.59
503.177	2580.04
503.632	2441.44
504.088	2463.29
504.543	2696.34
504.999	2526.04
505.455	2226.49
505.91	2115.99
506.366	2090.39
506.821	2078.69
507.277	2062.34
507.732	2068.74
508.187	2076.64
508.643	2087.94
509.098	2094.19
509.553	2117.09
510.009	2142.89
510.464	2185.39
510.919	2211.64
511.375	2246.39
511.83	2252.39
512.285	2298.29
512.74	2348.49
513.195	2388.79
513.65	2430.74
514.105	2460.44
514.56	2471.49
515.015	2523.94
515.47	2568.09
515.925	2539.74
516.38	2537.49
516.835	2523.19
517.29	2516.39
517.745	2526.64
518.2	2486.39
518.655	2408.79
519.109	2380.29
519.564	2353.39
520.019	2347.79
520.474	2308.09
520.928	2290.84
521.383	2286.34
521.838	2282.39
522.292	2254.24
522.747	2224.34
523.201	2204.89
523.656	2185.84
524.11	2188.44
524.565	2184.04
525.019	2182.84
525.474	2199.19
525.928	2191.04
526.382	2172.59
526.837	2150.09
527.291	2169.79
527.745	2161.24
528.2	2144.04
528.654	2117.49
529.108	2136.89
529.562	2145.54
530.016	2140.74
530.47	2133.94
530.925	2154.34
531.379	2160.44
531.833	2182.69
532.287	2158.59
532.741	2147.84
533.195	2153.84
533.649	2148.19
534.103	2144.29
534.556	2143.64
535.01	2150.29
535.464	2142.44
535.918	2160.84
536.372	2164.59
536.826	2156.14
537.279	2145.69
537.733	2137.24
538.187	2156.44
538.64	2153.99
539.094	2179.19
539.548	2205.14
540.001	2189.64
540.455	2196.54
540.908	2215.44
541.362	2243.29
541.815	2263.04
542.269	2305.09
542.722	2288.84
543.175	2321.64
543.629	2341.14
544.082	2360.39
544.536	2372.29
544.989	2382.19
545.442	2394.14
545.895	2375.09
546.349	2387.74
546.802	2401.84
547.255	2399.24
547.708	2415.14
548.161	2429.69
548.614	2435.99
549.067	2446.99
549.52	2432.44
549.973	2401.24
550.426	2394.64
550.879	2359.69
551.332	2362.29
551.785	2383.34
552.238	2405.79
552.691	2406.54
553.144	2434.79
553.596	2471.79
554.049	2514.54
554.502	2564.39
554.955	2612.29
555.407	2645.84
555.86	2614.94
556.313	2581.89
556.765	2570.69
557.218	2517.24
557.67	2526.19
558.123	2499.04
558.576	2472.29
559.028	2480.44
559.48	2501.99
559.933	2491.99
560.385	2413.09
560.838	2339.54
561.29	2262.69
561.742	2250.24
562.195	2207.04
562.647	2205.69
563.099	2191.64
563.551	2175.69
564.004	2193.99
564.456	2195.04
564.908	2152.84
565.36	2101.84
565.812	2055.64
566.264	2031.24
566.716	2016.44
567.168	1984.79
567.62	1994.99
568.072	1981.19
568.524	1944.99
568.976	1934.29
569.428	1924.19
569.88	1914.09
570.332	1943.24
570.784	1919.99
571.235	1916.94
571.687	1936.74
572.139	1930.84
572.59	1951.19
573.042	1956.64
573.494	1952.19
573.945	1920.24
574.397	1879.34
574.849	1894.14
575.3	1896.29
575.752	1870.19
576.203	1853.84
576.655	1855.49
577.106	1822.69
577.557	1833.94
578.009	1813.29
578.46	1828.64
578.912	1798.69
579.363	1816.89
579.814	1812.09
580.265	1812.99
580.717	1809.44
581.168	1813.99
581.619	1828.04
582.07	1843.69
582.521	1835.54
582.972	1831.49
583.423	1853.99
583.875	1884.34
584.326	1999.54
584.777	2190.84
585.227	2389.54
585.678	2554.24
586.129	2610.54
586.58	2658.89
587.031	2680.64
587.482	2864.69
587.933	3367.34
588.384	3062.49
588.834	2511.44
589.285	2129.19
589.736	2072.89
590.186	2076.44
590.637	2053.54
591.088	2022.89
591.538	1984.14
591.989	1973.04
592.439	1949.99
592.89	1946.24
593.34	1944.14
593.791	1965.04
594.241	1980.79
594.692	2001.04
595.142	1978.09
595.593	1939.14
596.043	1951.04
596.493	1968.34
596.943	2017.99
597.394	1989.89
597.844	1962.94
598.294	1988.09
598.744	2060.54
599.195	2172.09
599.645	2286.29
600.095	2409.59
600.545	2517.44
600.995	2634.09
601.445	2719.99
601.895	2845.24
602.345	2931.04
602.795	2879.84
603.245	2761.44
603.695	2592.84
604.145	2439.34
604.594	2316.39
605.044	2207.99
605.494	2074.24
605.944	1970.19
606.393	1939.24
606.843	1907.74
607.293	1906.69
607.743	1901.34
608.192	1913.44
608.642	1920.79
609.091	1917.69
609.541	1926.69
609.99	1912.14
610.44	1884.89
610.889	1858.14
611.339	1833.94
611.788	1825.19
612.238	1855.09
612.687	1868.44
613.136	1894.19
613.586	1936.64
614.035	1929.39
614.484	1954.19
614.933	1962.49
615.383	1928.84
615.832	1852.29
616.281	1810.89
616.73	1752.39
617.179	1716.29
617.628	1665.84
618.077	1650.29
618.526	1613.99
618.975	1605.19
619.424	1575.59
619.873	1596.39
620.322	1569.99
620.771	1572.09
621.22	1543.69
621.669	1506.29
622.118	1508.89
622.567	1494.59
623.015	1471.29
623.464	1464.09
623.913	1436.19
624.361	1446.34
624.81	1448.24
625.259	1428.69
625.707	1416.94
626.156	1424.29
626.604	1445.04
627.053	1448.14
627.501	1433.54
627.95	1446.59
628.398	1469.09
628.847	1451.99
629.295	1454.94
629.744	1473.69
630.192	1519.44
630.64	1639.64
631.089	1804.89
631.537	1891.74
631.985	1890.09
632.433	1974.09
632.881	1972.64
633.33	2374.44
633.778	2592.84
634.226	1821.19
634.674	1681.59
635.122	1662.29
635.57	1685.04
636.018	1985.49
636.466	1590.99
636.914	1416.94
637.362	1412.04
637.81	1430.29
638.258	1462.79
638.705	1465.59
639.153	1504.79
639.601	1523.34
640.049	1551.24
640.497	1602.49
640.944	1639.14
641.392	1558.74
641.84	1468.74
642.287	1421.59
642.735	1387.89
643.182	1379.34
643.63	1385.39
644.078	1394.89
644.525	1405.69
644.973	1449.14
645.42	1461.29
645.867	1479.14
646.315	1511.94
646.762	1560.64
647.21	1598.54
647.657	1678.89
648.104	1744.29
648.551	1804.69
648.999	1953.19
649.446	2147.84
649.893	2415.34
650.34	2830.79
650.787	3519.54
651.234	4569.59
651.682	6382.99
652.129	9121.84
652.576	13079.84
653.023	15535.84
653.47	15539.04
653.917	15539.09
654.363	15538.99
654.81	15535.99
655.257	15536.64
655.704	15540.44
656.151	9806.84
656.598	6367.34
657.044	4517.39
657.491	3526.04
657.938	2859.09
658.385	2416.24
658.831	2158.09
659.278	1922.69
659.724	1765.89
660.171	1637.69
660.618	1524.49
661.064	1436.39
661.511	1390.94
661.957	1347.14
662.404	1319.54
662.85	1300.54
663.296	1296.09
663.743	1258.09
664.189	1242.99
664.635	1236.79
665.082	1212.24
665.528	1200.79
665.974	1178.79
666.42	1170.99
666.867	1184.69
667.313	1194.34
667.759	1252.29
668.205	1254.89
668.651	1267.14
669.097	1234.79
669.543	1342.29
669.989	1258.34
670.435	1102.84
670.881	1090.84
671.327	1140.19
671.773	1221.09
672.219	1312.44
672.665	1393.89
673.11	1436.74
673.556	1443.74
674.002	1484.59
674.448	1502.69
674.893	1268.99
675.339	1110.04
675.785	1028.74
676.23	977.49
676.676	943.59
677.122	911.79
677.567	888.89
678.013	860.64
678.458	853.64
678.904	859.29
679.349	853.84
679.794	842.14
680.24	845.94
680.685	835.04
681.131	838.49
681.576	845.09
682.021	843.24
682.466	850.74
682.912	865.29
683.357	903.19
683.802	977.34
684.247	1077.04
684.692	1146.24
685.137	1191.29
685.583	1202.89
686.028	1264.54
686.473	1199.24
686.918	1040.64
687.363	952.84
687.807	907.44
688.252	861.84
688.697	826.14
689.142	806.94
689.587	814.74
690.032	828.94
690.477	860.79
690.921	907.09
691.366	954.19
691.811	994.14
692.255	1068.29
692.7	1318.94
693.145	1900.24
693.589	2885.44
694.034	3411.09
694.478	3620.49
694.923	3296.79
695.367	4660.09
695.812	2816.09
696.256	1197.79
696.701	883.39
697.145	828.84
697.59	799.79
698.034	789.94
698.478	788.19
698.922	791.89
699.367	814.59
699.811	851.44
700.255	931.64
700.699	1012.39
701.143	1097.69
701.588	1151.89
702.032	1190.89
702.476	1223.39
702.92	1303.09
703.364	1729.89
703.808	2649.59
704.252	3287.54
704.696	3433.89
705.14	3230.14
705.584	4415.99
706.027	2446.84
706.471	1234.74
706.915	925.59
707.359	828.39
707.803	783.19
708.246	752.49
708.69	750.34
709.134	742.79
709.577	740.69
710.021	749.44
710.465	740.94
710.908	741.84
711.352	773.24
711.795	850.89
712.239	930.64
712.682	948.84
713.126	940.19
713.569	1044.69
714.012	864.64
714.456	758.49
714.899	708.89
715.342	668.59
715.786	635.29
716.229	617.64
716.672	602.94
717.115	606.49
717.558	614.39
718.002	633.99
718.445	664.04
718.888	695.19
719.331	706.54
719.774	719.29
720.217	710.14
720.66	661.19
721.103	628.34
721.546	594.19
721.989	582.14
722.432	579.59
722.874	571.09
723.317	584.09
723.76	633.94
724.203	787.09
724.645	1042.94
725.088	1211.49
725.531	1176.24
725.974	1292.49
726.416	1157.79
726.859	725.54
727.301	605.39
727.744	570.04
728.187	573.04
728.629	573.89
729.071	610.94
729.514	635.19
729.956	659.09
730.399	666.34
730.841	664.39
731.283	642.49
731.726	633.49
732.168	641.54
732.61	679.69
733.053	732.04
733.495	808.99
733.937	893.49
734.379	1066.64
734.821	1359.69
735.263	2181.94
735.705	3925.24
736.148	5678.74
736.59	5607.84
737.032	6047.29
737.474	4992.49
737.916	1916.64
738.357	1011.74
738.799	784.99
739.241	727.29
739.683	728.49
740.125	738.74
740.567	739.04
741.008	775.04
741.45	809.14
741.892	837.19
742.334	831.49
