Data from MSPlasma+Separation6_Subt14_10-15-23-986.txt Node
Date: Fri Jul 21 10:15:23 EDT 2017
User: Ender
Spectrometer: HR+D1039
Trigger mode: 0
Integration Time (sec): 6.430000E-3
Scans to average: 20
Electric dark correction enabled: true
Nonlinearity correction enabled: false
Boxcar width: 0
XAxis mode: Wavelengths
Number of Pixels in Spectrum: 2048
>>>>>Begin Spectral Data<<<<<
187.836	-0.19
188.309	-0.19
188.782	-0.19
189.255	1.71
189.728	2.01
190.201	0.91
190.674	-0.74
191.147	-0.64
191.619	-1.84
192.092	-1.14
192.565	-1.19
193.038	1.71
193.511	3.16
193.984	-1.44
194.456	-0.69
194.929	0.56
195.402	-1.64
195.874	-0.59
196.347	2.06
196.82	3.61
197.292	-2.14
197.765	-2.79
198.237	-2.99
198.71	-4.14
199.182	2.41
199.655	4.36
200.127	2.01
200.6	3.06
201.072	1.56
201.544	4.16
202.017	0.81
202.489	1.91
202.961	-1.89
203.433	-3.29
203.906	-0.24
204.378	4.06
204.85	3.86
205.322	-0.84
205.794	6.11
206.266	-1.44
206.739	2.46
207.211	1.06
207.683	1.46
208.155	5.76
208.627	1.76
209.099	3.11
209.57	3.51
210.042	6.06
210.514	8.26
210.986	11.26
211.458	21.01
211.93	13.26
212.402	5.96
212.873	3.16
213.345	0.56
213.817	9.36
214.288	-0.74
214.76	4.86
215.232	2.36
215.703	0.81
216.175	4.31
216.646	2.16
217.118	4.16
217.589	-0.14
218.061	2.81
218.532	2.76
219.004	10.16
219.475	15.36
219.946	28.46
220.418	38.96
220.889	26.26
221.36	15.56
221.832	11.76
222.303	4.36
222.774	10.01
223.245	2.81
223.717	6.46
224.188	11.81
224.659	4.86
225.13	1.31
225.601	1.86
226.072	6.41
226.543	9.46
227.014	7.06
227.485	11.51
227.956	11.26
228.427	16.21
228.898	14.01
229.369	15.56
229.839	9.86
230.31	15.61
230.781	14.46
231.252	20.06
231.722	27.36
232.193	33.31
232.664	38.01
233.135	59.76
233.605	61.66
234.076	48.91
234.546	41.11
235.017	48.16
235.487	43.11
235.958	44.11
236.428	65.11
236.899	107.51
237.369	121.06
237.84	86.91
238.31	112.86
238.78	112.46
239.251	118.66
239.721	113.51
240.191	83.71
240.662	51.66
241.132	42.16
241.602	53.21
242.072	77.66
242.542	93.46
243.013	64.31
243.483	57.11
243.953	43.16
244.423	43.16
244.893	51.31
245.363	58.36
245.833	56.86
246.303	66.66
246.773	83.31
247.243	87.61
247.712	93.66
248.182	112.61
248.652	118.11
249.122	175.31
249.592	335.86
250.061	506.36
250.531	804.51
251.001	611.16
251.471	510.61
251.94	381.41
252.41	205.11
252.879	143.96
253.349	111.51
253.818	91.91
254.288	77.21
254.757	77.91
255.227	104.26
255.696	82.66
256.166	77.01
256.635	80.96
257.105	98.31
257.574	131.96
258.043	142.16
258.513	242.41
258.982	306.36
259.451	216.71
259.92	219.51
260.389	196.91
260.859	144.71
261.328	173.66
261.797	262.96
262.266	223.56
262.735	106.21
263.204	64.76
263.673	57.86
264.142	48.81
264.611	53.41
265.08	61.01
265.549	65.41
266.018	57.31
266.487	56.36
266.955	57.91
267.424	64.81
267.893	65.46
268.362	62.76
268.83	58.56
269.299	67.01
269.768	77.51
270.236	90.16
270.705	99.86
271.174	95.76
271.642	107.16
272.111	124.56
272.579	199.96
273.048	313.81
273.516	397.66
273.985	397.11
274.453	303.26
274.922	179.76
275.39	115.01
275.858	109.61
276.327	87.96
276.795	93.01
277.263	103.86
277.731	137.16
278.2	265.51
278.668	353.66
279.136	266.26
279.604	169.21
280.072	109.31
280.54	92.66
281.008	99.06
281.477	94.31
281.945	99.36
282.413	96.36
282.881	102.81
283.348	103.31
283.816	109.56
284.284	116.06
284.752	111.61
285.22	115.21
285.688	131.86
286.156	213.16
286.623	576.66
287.091	1144.36
287.559	586.16
288.026	219.11
288.494	141.21
288.962	116.26
289.429	112.41
289.897	105.06
290.364	100.21
290.832	99.81
291.3	98.61
291.767	105.86
292.234	113.81
292.702	112.91
293.169	124.31
293.637	129.51
294.104	122.26
294.571	119.06
295.039	117.61
295.506	115.51
295.973	123.56
296.44	118.11
296.908	129.51
297.375	153.11
297.842	149.16
298.309	121.36
298.776	124.71
299.243	135.61
299.71	126.06
300.177	126.46
300.644	138.76
301.111	154.21
301.578	141.26
302.045	131.86
302.512	127.51
302.979	129.76
303.446	138.56
303.913	145.46
304.379	155.66
304.846	172.46
305.313	189.46
305.78	220.51
306.246	275.61
306.713	291.31
307.18	254.06
307.646	280.46
308.113	244.36
308.579	190.71
309.046	184.36
309.512	189.81
309.979	174.66
310.445	164.51
310.912	171.56
311.378	171.06
311.845	172.11
312.311	164.16
312.777	160.86
313.244	171.91
313.71	179.71
314.176	198.16
314.642	226.86
315.109	262.71
315.575	243.01
316.041	225.46
316.507	206.71
316.973	235.81
317.439	225.86
317.905	254.86
318.371	249.21
318.837	235.21
319.303	249.91
319.769	228.31
320.235	253.81
320.701	296.41
321.167	319.66
321.633	388.96
322.099	531.51
322.564	713.66
323.03	555.31
323.496	388.31
323.962	361.41
324.427	338.46
324.893	298.86
325.359	287.41
325.824	243.61
326.29	263.86
326.755	267.76
327.221	258.06
327.686	278.96
328.152	249.26
328.617	231.06
329.083	240.61
329.548	253.81
330.014	266.51
330.479	284.26
330.944	343.76
331.41	384.56
331.875	375.21
332.34	380.61
332.805	442.61
333.271	576.16
333.736	751.91
334.201	677.61
334.666	498.91
335.131	572.51
335.596	446.36
336.061	477.01
336.526	479.56
336.991	417.26
337.456	450.26
337.921	356.16
338.386	299.06
338.851	266.96
339.316	250.71
339.781	236.96
340.246	237.86
340.711	244.91
341.175	248.01
341.64	252.21
342.105	257.26
342.569	272.91
343.034	299.16
343.499	300.26
343.963	286.56
344.428	288.81
344.893	296.26
345.357	300.86
345.822	294.36
346.286	298.16
346.751	307.36
347.215	306.76
347.679	315.36
348.144	337.56
348.608	333.96
349.073	346.51
349.537	392.21
350.001	374.21
350.465	349.96
350.93	342.86
351.394	344.71
351.858	337.01
352.322	355.76
352.786	357.96
353.25	348.06
353.715	344.41
354.179	368.86
354.643	386.91
355.107	405.01
355.571	418.26
356.035	436.86
356.498	413.71
356.962	448.86
357.426	438.76
357.89	398.16
358.354	367.66
358.818	374.56
359.281	375.36
359.745	399.91
360.209	388.36
360.673	393.01
361.136	399.81
361.6	399.01
362.064	425.11
362.527	435.81
362.991	433.51
363.454	433.06
363.918	437.71
364.381	436.71
364.845	421.56
365.308	414.21
365.772	413.11
366.235	421.36
366.698	445.76
367.162	534.71
367.625	601.71
368.088	487.31
368.552	441.06
369.015	449.01
369.478	481.41
369.941	484.61
370.404	497.56
370.867	525.61
371.331	525.26
371.794	536.61
372.257	610.61
372.72	639.41
373.183	610.06
373.646	614.66
374.109	619.61
374.572	711.81
375.035	852.31
375.497	634.86
375.96	509.91
376.423	477.96
376.886	484.11
377.349	492.46
377.811	494.51
378.274	514.16
378.737	511.36
379.199	529.61
379.662	542.31
380.125	581.11
380.587	640.61
381.05	681.61
381.512	680.46
381.975	658.21
382.437	643.71
382.9	642.61
383.362	652.41
383.825	697.06
384.287	880.11
384.75	975.56
385.212	859.76
385.674	704.56
386.136	645.06
386.599	638.06
387.061	664.41
387.523	693.11
387.985	697.16
388.447	730.06
388.91	812.81
389.372	987.06
389.834	924.66
390.296	759.61
390.758	772.11
391.22	792.46
391.682	966.56
392.144	1497.71
392.606	1398.36
393.068	832.21
393.529	764.26
393.991	736.56
394.453	721.21
394.915	756.06
395.377	918.51
395.838	1121.26
396.3	802.46
396.762	621.91
397.224	589.91
397.685	586.96
398.147	599.76
398.608	603.81
399.07	612.36
399.531	592.31
399.993	604.16
400.454	610.21
400.916	618.71
401.377	639.81
401.839	640.06
402.3	635.26
402.762	663.76
403.223	740.91
403.684	747.21
404.145	685.81
404.607	667.46
405.068	673.26
405.529	686.81
405.99	694.36
406.451	710.86
406.913	695.06
407.374	709.66
407.835	708.31
408.296	730.06
408.757	731.66
409.218	760.86
409.679	763.41
410.14	778.56
410.601	804.31
411.062	843.31
411.522	969.66
411.983	1072.91
412.444	915.16
412.905	801.41
413.366	790.71
413.826	819.21
414.287	920.51
414.748	1085.26
415.208	1113.36
415.669	927.06
416.13	848.86
416.59	832.66
417.051	867.86
417.511	899.36
417.972	954.91
418.432	1031.01
418.893	1149.71
419.353	1087.66
419.814	841.56
420.274	760.66
420.734	753.41
421.195	807.11
421.655	838.01
422.115	815.46
422.576	784.01
423.036	797.51
423.496	822.51
423.956	862.66
424.416	920.66
424.876	1034.76
425.336	1036.46
425.797	1032.86
426.257	1030.21
426.717	975.06
427.177	925.21
427.637	941.41
428.097	991.56
428.556	1051.66
429.016	1138.81
429.476	1129.71
429.936	1090.66
430.396	1060.26
430.856	1078.66
431.315	1109.31
431.775	1186.56
432.235	1247.06
432.694	1270.56
433.154	1194.51
433.614	1165.01
434.073	1112.96
434.533	1015.06
434.993	971.51
435.452	988.31
435.912	968.96
436.371	961.31
436.83	954.71
437.29	971.71
437.749	919.06
438.209	906.56
438.668	923.21
439.127	921.96
439.587	908.86
440.046	870.71
440.505	887.21
440.964	880.56
441.424	906.31
441.883	925.61
442.342	875.06
442.801	846.56
443.26	875.81
443.719	859.51
444.178	847.16
444.637	858.36
445.096	863.91
445.555	887.06
446.014	880.71
446.473	843.16
446.932	848.36
447.391	862.46
447.849	883.06
448.308	882.06
448.767	899.16
449.226	914.06
449.685	923.96
450.143	962.21
450.602	967.66
451.061	923.51
451.519	939.56
451.978	963.61
452.436	998.76
452.895	954.56
453.353	917.31
453.812	931.31
454.27	918.81
454.729	889.21
455.187	897.06
455.646	900.36
456.104	917.06
456.562	909.36
457.021	896.66
457.479	858.46
457.937	880.21
458.395	910.66
458.854	897.16
459.312	892.21
459.77	897.26
460.228	910.96
460.686	923.96
461.144	921.71
461.602	905.66
462.06	908.26
462.518	930.41
462.976	934.36
463.434	938.01
463.892	951.66
464.35	967.56
464.808	986.56
465.266	991.71
465.724	1012.11
466.181	1012.91
466.639	1011.56
467.097	1055.56
467.555	1086.91
468.012	1069.11
468.47	1091.46
468.928	1121.96
469.385	1147.36
469.843	1162.46
470.3	1151.86
470.758	1194.81
471.215	1209.46
471.673	1236.01
472.13	1269.91
472.588	1293.51
473.045	1285.76
473.503	1322.51
473.96	1375.11
474.417	1408.01
474.875	1465.56
475.332	1521.46
475.789	1543.41
476.246	1587.91
476.704	1658.46
477.161	1713.01
477.618	1770.41
478.075	1856.56
478.532	2014.06
478.989	2176.86
479.446	2430.86
479.903	2581.26
480.36	2842.11
480.817	3045.76
481.274	3287.46
481.731	3623.56
482.188	3917.36
482.645	4251.91
483.102	4504.71
483.558	4824.71
484.015	5079.16
484.472	5097.61
484.929	4929.51
485.385	4689.91
485.842	4553.51
486.299	4307.36
486.755	3856.56
487.212	3438.66
487.668	3068.11
488.125	2823.26
488.582	2592.86
489.038	2471.26
489.494	2390.06
489.951	2311.71
490.407	2253.21
490.864	2203.61
491.32	2153.21
491.776	2112.21
492.233	2125.01
492.689	2087.11
493.145	2061.91
493.602	2051.11
494.058	2088.31
494.514	2119.81
494.97	2121.26
495.426	2155.66
495.882	2164.86
496.338	2177.06
496.794	2252.36
497.251	2266.66
497.707	2255.51
498.163	2283.81
498.618	2269.61
499.074	2287.26
499.53	2328.21
499.986	2371.46
500.442	2391.86
500.898	2399.66
501.354	2441.31
501.809	2462.66
502.265	2476.96
502.721	2605.46
503.177	2684.16
503.632	2536.16
504.088	2557.36
504.543	2805.71
504.999	2615.61
505.455	2293.26
505.91	2188.61
506.366	2183.76
506.821	2148.76
507.277	2125.76
507.732	2150.21
508.187	2145.11
508.643	2163.96
509.098	2160.61
509.553	2189.11
510.009	2218.66
510.464	2264.76
510.919	2275.76
511.375	2297.91
511.83	2333.91
512.285	2391.76
512.74	2441.01
513.195	2485.36
513.65	2516.51
514.105	2550.41
514.56	2562.61
515.015	2611.16
515.47	2653.01
515.925	2624.16
516.38	2616.06
516.835	2605.21
517.29	2606.16
517.745	2623.96
518.2	2578.61
518.655	2503.01
519.109	2454.86
519.564	2431.16
520.019	2421.61
520.474	2384.01
520.928	2367.06
521.383	2371.26
521.838	2345.51
522.292	2327.26
522.747	2294.06
523.201	2296.66
523.656	2264.41
524.11	2262.06
524.565	2255.36
525.019	2256.51
525.474	2277.86
525.928	2269.36
526.382	2252.81
526.837	2222.61
527.291	2236.56
527.745	2219.81
528.2	2234.61
528.654	2206.51
529.108	2211.21
529.562	2209.06
530.016	2214.21
530.47	2222.01
530.925	2208.26
531.379	2228.01
531.833	2255.11
532.287	2249.26
532.741	2228.61
533.195	2229.46
533.649	2228.56
534.103	2234.96
534.556	2212.51
535.01	2233.26
535.464	2231.96
535.918	2232.36
536.372	2251.81
536.826	2234.71
537.279	2212.81
537.733	2214.81
538.187	2223.86
538.64	2226.46
539.094	2250.06
539.548	2269.86
540.001	2264.41
540.455	2283.36
540.908	2305.46
541.362	2317.06
541.815	2345.81
542.269	2386.21
542.722	2377.46
543.175	2408.91
543.629	2424.21
544.082	2430.41
544.536	2470.61
544.989	2457.61
545.442	2481.76
545.895	2471.31
546.349	2476.66
546.802	2488.11
547.255	2484.86
547.708	2505.81
548.161	2525.96
548.614	2538.46
549.067	2535.16
549.52	2527.01
549.973	2497.26
550.426	2476.61
550.879	2461.01
551.332	2450.06
551.785	2470.81
552.238	2492.26
552.691	2491.56
553.144	2540.26
553.596	2571.06
554.049	2602.51
554.502	2668.51
554.955	2717.46
555.407	2747.26
555.86	2710.96
556.313	2677.91
556.765	2671.76
557.218	2619.01
557.67	2629.31
558.123	2576.66
558.576	2581.36
559.028	2579.41
559.48	2597.31
559.933	2585.86
560.385	2517.31
560.838	2424.01
561.29	2347.01
561.742	2347.26
562.195	2293.61
562.647	2288.06
563.099	2278.31
563.551	2265.91
564.004	2281.51
564.456	2269.11
564.908	2219.96
565.36	2180.06
565.812	2142.06
566.264	2119.21
566.716	2086.31
567.168	2063.36
567.62	2058.61
568.072	2049.21
568.524	2030.31
568.976	2007.86
569.428	2007.81
569.88	1993.51
570.332	2001.56
570.784	2010.26
571.235	1988.46
571.687	2009.76
572.139	2000.06
572.59	2027.56
573.042	2043.61
573.494	2035.16
573.945	2006.01
574.397	1968.26
574.849	1967.76
575.3	1972.06
575.752	1934.61
576.203	1925.36
576.655	1938.31
577.106	1908.06
577.557	1898.66
578.009	1881.81
578.46	1902.41
578.912	1873.16
579.363	1893.36
579.814	1891.11
580.265	1877.41
580.717	1894.21
581.168	1880.71
581.619	1891.16
582.07	1914.81
582.521	1902.11
582.972	1899.06
583.423	1922.16
583.875	1965.96
584.326	2075.61
584.777	2263.66
585.227	2486.46
585.678	2663.31
586.129	2714.16
586.58	2761.71
587.031	2800.41
587.482	2980.76
587.933	3487.61
588.384	3196.16
588.834	2619.41
589.285	2203.26
589.736	2161.36
590.186	2167.41
590.637	2136.91
591.088	2088.51
591.538	2051.16
591.989	2039.96
592.439	2035.91
592.89	2017.41
593.34	2021.76
593.791	2054.11
594.241	2062.26
594.692	2075.71
595.142	2044.66
595.593	2018.26
596.043	2024.11
596.493	2054.86
596.943	2103.26
597.394	2081.01
597.844	2037.21
598.294	2073.61
598.744	2142.76
599.195	2258.21
599.645	2371.16
600.095	2499.81
600.545	2601.46
600.995	2730.26
601.445	2823.01
601.895	2967.91
602.345	3054.46
602.795	3012.51
603.245	2866.81
603.695	2688.96
604.145	2545.86
604.594	2424.51
605.044	2291.96
605.494	2151.66
605.944	2046.21
606.393	2002.76
606.843	1986.66
607.293	1980.31
607.743	1974.26
608.192	2004.51
608.642	1995.61
609.091	2000.81
609.541	2004.36
609.99	1992.31
610.44	1955.76
610.889	1930.36
611.339	1919.31
611.788	1901.06
612.238	1937.46
612.687	1949.96
613.136	1973.16
613.586	2001.46
614.035	2000.46
614.484	2031.71
614.933	2042.96
615.383	2001.01
615.832	1928.86
616.281	1890.01
616.73	1822.91
617.179	1775.16
617.628	1744.31
618.077	1714.71
618.526	1690.86
618.975	1681.31
619.424	1645.61
619.873	1662.66
620.322	1642.81
620.771	1641.51
621.22	1613.21
621.669	1586.66
622.118	1566.11
622.567	1547.11
623.015	1533.16
623.464	1522.66
623.913	1502.86
624.361	1511.16
624.81	1498.91
625.259	1491.66
625.707	1485.61
626.156	1489.06
626.604	1504.91
627.053	1503.51
627.501	1504.51
627.95	1511.71
628.398	1539.36
628.847	1519.16
629.295	1521.01
629.744	1542.66
630.192	1582.16
630.64	1707.11
631.089	1891.76
631.537	1999.66
631.985	1989.51
632.433	2082.66
632.881	2059.36
633.33	2496.06
633.778	2739.91
634.226	1905.41
634.674	1753.66
635.122	1731.16
635.57	1766.31
636.018	2069.61
636.466	1666.81
636.914	1479.21
637.362	1478.66
637.81	1490.91
638.258	1527.51
638.705	1546.61
639.153	1590.51
639.601	1607.51
640.049	1633.41
640.497	1682.21
640.944	1714.01
641.392	1638.91
641.84	1540.56
642.287	1485.16
642.735	1470.26
643.182	1459.76
643.63	1465.26
644.078	1467.91
644.525	1494.81
644.973	1535.16
645.42	1562.86
645.867	1582.71
646.315	1611.26
646.762	1664.26
647.21	1725.76
647.657	1820.76
648.104	1908.31
648.551	1985.46
648.999	2157.56
649.446	2384.46
649.893	2707.46
650.34	3208.81
650.787	4014.86
651.234	5299.71
651.682	7387.76
652.129	10703.26
652.576	15061.71
653.023	15537.76
653.47	15540.96
653.917	15541.01
654.363	15540.91
654.81	15537.91
655.257	15538.56
655.704	15542.36
656.151	11418.81
656.598	7374.96
657.044	5235.51
657.491	4040.91
657.938	3247.21
658.385	2714.66
658.831	2381.71
659.278	2130.36
659.724	1940.31
660.171	1788.56
660.618	1656.01
661.064	1558.86
661.511	1503.11
661.957	1453.16
662.404	1405.71
662.85	1399.01
663.296	1372.06
663.743	1336.21
664.189	1317.11
664.635	1309.16
665.082	1290.81
665.528	1272.56
665.974	1237.06
666.42	1226.41
666.867	1259.21
667.313	1265.56
667.759	1322.06
668.205	1317.91
668.651	1338.86
669.097	1288.06
669.543	1426.11
669.989	1328.06
670.435	1163.31
670.881	1154.46
671.327	1194.41
671.773	1273.01
672.219	1370.46
672.665	1459.36
673.11	1502.86
673.556	1508.16
674.002	1546.81
674.448	1570.16
674.893	1325.66
675.339	1162.86
675.785	1075.21
676.23	1023.31
676.676	980.66
677.122	961.51
677.567	936.56
678.013	908.71
678.458	897.71
678.904	900.46
679.349	884.16
679.794	886.06
680.24	884.26
680.685	876.46
681.131	878.41
681.576	884.61
682.021	891.66
682.466	893.06
682.912	898.11
683.357	945.31
683.802	1030.26
684.247	1127.46
684.692	1193.86
685.137	1232.41
685.583	1263.41
686.028	1327.41
686.473	1251.91
686.918	1084.66
687.363	993.96
687.807	940.06
688.252	893.96
688.697	866.36
689.142	853.56
689.587	852.56
690.032	864.96
690.477	899.81
690.921	941.51
691.366	992.61
691.811	1025.66
692.255	1113.01
692.7	1368.71
693.145	1986.11
693.589	3003.86
694.034	3534.36
694.478	3753.56
694.923	3417.21
695.367	4841.61
695.812	2919.81
696.256	1246.26
696.701	926.76
697.145	868.11
697.59	832.46
698.034	819.36
698.478	822.56
698.922	829.31
699.367	854.26
699.811	892.91
700.255	966.16
700.699	1058.56
701.143	1145.91
701.588	1200.41
702.032	1250.36
702.476	1289.71
702.92	1361.31
703.364	1795.81
703.808	2772.21
704.252	3419.51
704.696	3569.91
705.14	3349.16
705.584	4579.56
706.027	2551.26
706.471	1287.11
706.915	962.66
707.359	863.26
707.803	807.66
708.246	780.16
708.69	781.96
709.134	767.61
709.577	768.76
710.021	786.61
710.465	775.11
710.908	770.11
711.352	806.91
711.795	893.26
712.239	961.36
712.682	980.51
713.126	972.51
713.569	1084.51
714.012	895.56
714.456	796.51
714.899	733.76
715.342	690.31
715.786	660.81
716.229	648.26
716.672	629.36
717.115	627.21
717.558	640.31
718.002	658.06
718.445	682.06
718.888	722.46
719.331	739.46
719.774	752.71
720.217	736.96
720.66	690.01
721.103	655.81
721.546	625.86
721.989	612.66
722.432	599.96
722.874	595.16
723.317	606.61
723.76	659.91
724.203	818.11
724.645	1090.01
725.088	1257.91
725.531	1227.11
725.974	1347.61
726.416	1203.81
726.859	752.96
727.301	616.41
727.744	598.01
728.187	591.96
728.629	606.26
729.071	633.46
729.514	659.76
729.956	688.91
730.399	695.16
730.841	694.96
731.283	672.16
731.726	657.71
732.168	672.46
732.61	705.81
733.053	757.86
733.495	837.16
733.937	939.41
734.379	1105.31
734.821	1409.06
735.263	2251.66
735.705	4076.51
736.148	5901.06
736.59	5787.86
737.032	6261.21
737.474	5147.01
737.916	1982.86
738.357	1048.26
738.799	812.76
739.241	753.26
739.683	755.76
740.125	764.76
740.567	776.01
741.008	804.91
741.45	844.01
741.892	858.16
