Data from MSPlasma+Separation6_Subt14_10-14-42-269.txt Node
Date: Fri Jul 21 10:14:42 EDT 2017
User: Ender
Spectrometer: HR+D1039
Trigger mode: 0
Integration Time (sec): 6.430000E-3
Scans to average: 20
Electric dark correction enabled: true
Nonlinearity correction enabled: false
Boxcar width: 0
XAxis mode: Wavelengths
Number of Pixels in Spectrum: 2048
>>>>>Begin Spectral Data<<<<<
187.836	2.52
188.309	2.52
188.782	2.52
189.255	-1.23
189.728	2.22
190.201	-2.38
190.674	-1.23
191.147	-2.73
191.619	0.17
192.092	1.72
192.565	-2.33
193.038	3.87
193.511	3.32
193.984	-4.38
194.456	0.07
194.929	-0.33
195.402	-0.18
195.874	0.92
196.347	2.77
196.82	1.57
197.292	-2.98
197.765	-1.43
198.237	-0.28
198.71	-2.03
199.182	2.12
199.655	7.07
200.127	3.32
200.6	4.42
201.072	-2.68
201.544	0.52
202.017	1.02
202.489	-0.58
202.961	0.77
203.433	-3.08
203.906	-0.18
204.378	1.87
204.85	4.72
205.322	3.07
205.794	8.27
206.266	1.42
206.739	3.37
207.211	3.57
207.683	1.22
208.155	2.42
208.627	1.27
209.099	5.12
209.57	6.02
210.042	3.67
210.514	5.37
210.986	9.32
211.458	23.32
211.93	12.32
212.402	5.62
212.873	-2.33
213.345	1.37
213.817	3.02
214.288	3.22
214.76	5.32
215.232	3.47
215.703	3.17
216.175	3.32
216.646	5.87
217.118	3.87
217.589	0.02
218.061	4.42
218.532	0.37
219.004	8.42
219.475	12.47
219.946	29.27
220.418	36.37
220.889	24.82
221.36	8.97
221.832	10.57
222.303	9.42
222.774	7.07
223.245	6.72
223.717	3.27
224.188	9.77
224.659	7.72
225.13	3.12
225.601	8.82
226.072	8.62
226.543	6.12
227.014	4.32
227.485	9.52
227.956	9.62
228.427	14.27
228.898	15.87
229.369	11.32
229.839	8.52
230.31	16.82
230.781	15.47
231.252	19.57
231.722	27.27
232.193	35.92
232.664	44.42
233.135	61.82
233.605	67.92
234.076	51.02
234.546	41.32
235.017	49.47
235.487	49.97
235.958	51.32
236.428	68.42
236.899	114.37
237.369	124.07
237.84	93.87
238.31	121.22
238.78	113.02
239.251	116.27
239.721	121.02
240.191	91.92
240.662	56.07
241.132	43.57
241.602	54.07
242.072	75.07
242.542	90.87
243.013	64.87
243.483	55.82
243.953	42.12
244.423	44.32
244.893	48.07
245.363	59.57
245.833	59.27
246.303	60.92
246.773	82.72
247.243	83.37
247.712	102.37
248.182	110.87
248.652	118.52
249.122	169.37
249.592	320.22
250.061	474.57
250.531	752.87
251.001	580.57
251.471	478.32
251.94	369.82
252.41	196.37
252.879	138.52
253.349	107.42
253.818	93.47
254.288	76.47
254.757	78.07
255.227	102.02
255.696	82.02
256.166	71.62
256.635	80.02
257.105	101.72
257.574	128.37
258.043	132.57
258.513	237.27
258.982	309.22
259.451	211.72
259.92	212.47
260.389	201.02
260.859	141.07
261.328	165.32
261.797	239.42
262.266	207.82
262.735	94.87
263.204	59.52
263.673	53.07
264.142	46.72
264.611	46.87
265.08	52.37
265.549	59.72
266.018	53.17
266.487	53.22
266.955	48.42
267.424	61.17
267.893	54.42
268.362	55.92
268.83	59.47
269.299	58.92
269.768	70.07
270.236	84.07
270.705	87.47
271.174	83.12
271.642	98.22
272.111	118.92
272.579	181.37
273.048	285.32
273.516	363.07
273.985	363.72
274.453	277.82
274.922	164.72
275.39	107.47
275.858	99.27
276.327	80.22
276.795	82.42
277.263	99.72
277.731	146.52
278.2	334.57
278.668	445.87
279.136	343.27
279.604	196.82
280.072	106.62
280.54	88.07
281.008	83.92
281.477	79.32
281.945	77.92
282.413	87.47
282.881	84.97
283.348	91.47
283.816	97.97
284.284	106.57
284.752	97.27
285.22	98.47
285.688	107.77
286.156	168.57
286.623	479.87
287.091	937.57
287.559	495.72
288.026	189.37
288.494	119.77
288.962	102.17
289.429	89.17
289.897	91.77
290.364	77.07
290.832	84.12
291.3	89.27
291.767	94.22
292.234	98.52
292.702	99.82
293.169	103.57
293.637	107.87
294.104	109.57
294.571	103.07
295.039	98.92
295.506	96.77
295.973	111.22
296.44	99.42
296.908	113.07
297.375	135.47
297.842	127.42
298.309	109.57
298.776	107.57
299.243	111.97
299.71	105.97
300.177	106.77
300.644	120.42
301.111	134.57
301.578	119.02
302.045	107.92
302.512	107.97
302.979	107.62
303.446	122.52
303.913	121.57
304.379	131.17
304.846	145.17
305.313	157.02
305.78	174.77
306.246	207.32
306.713	222.77
307.18	195.87
307.646	219.07
308.113	195.47
308.579	157.47
309.046	155.62
309.512	154.87
309.979	151.07
310.445	133.12
310.912	143.87
311.378	138.52
311.845	141.67
312.311	135.97
312.777	141.62
313.244	145.07
313.71	146.62
314.176	163.52
314.642	188.22
315.109	214.12
315.575	199.67
316.041	186.42
316.507	180.27
316.973	202.52
317.439	193.47
317.905	205.97
318.371	204.92
318.837	192.07
319.303	200.82
319.769	185.37
320.235	215.57
320.701	236.57
321.167	249.32
321.633	296.97
322.099	395.22
322.564	517.57
323.03	411.52
323.496	299.42
323.962	283.07
324.427	261.32
324.893	230.02
325.359	229.72
325.824	198.87
326.29	215.57
326.755	215.72
327.221	212.42
327.686	226.97
328.152	209.52
328.617	202.72
329.083	199.97
329.548	215.67
330.014	225.02
330.479	233.82
330.944	273.62
331.41	303.47
331.875	284.37
332.34	306.02
332.805	343.07
333.271	434.37
333.736	552.87
334.201	511.27
334.666	394.07
335.131	438.92
335.596	353.62
336.061	374.42
336.526	376.32
336.991	322.72
337.456	353.07
337.921	284.87
338.386	239.47
338.851	225.62
339.316	210.37
339.781	205.67
340.246	211.62
340.711	208.72
341.175	214.47
341.64	214.17
342.105	225.77
342.569	237.92
343.034	254.52
343.499	260.27
343.963	248.12
344.428	246.92
344.893	258.52
345.357	260.47
345.822	252.77
346.286	256.72
346.751	268.67
347.215	262.22
347.679	273.27
348.144	289.62
348.608	287.37
349.073	298.47
349.537	321.42
350.001	319.52
350.465	299.02
350.93	291.52
351.394	298.82
351.858	290.47
352.322	308.22
352.786	312.62
353.25	301.67
353.715	301.52
354.179	319.47
354.643	340.27
355.107	348.27
355.571	366.47
356.035	377.87
356.498	363.22
356.962	399.82
357.426	383.82
357.89	347.92
358.354	327.72
358.818	321.17
359.281	336.62
359.745	353.82
360.209	345.27
360.673	347.47
361.136	348.37
361.6	352.27
362.064	376.37
362.527	378.17
362.991	370.57
363.454	377.87
363.918	375.32
364.381	373.47
364.845	360.87
365.308	357.12
365.772	364.92
366.235	367.82
366.698	384.82
367.162	446.47
367.625	499.57
368.088	422.52
368.552	387.37
369.015	394.77
369.478	421.62
369.941	426.77
370.404	441.87
370.867	463.77
371.331	471.37
371.794	472.42
372.257	526.47
372.72	559.32
373.183	529.72
373.646	537.72
374.109	535.42
374.572	595.02
375.035	683.37
375.497	540.02
375.96	451.52
376.423	431.47
376.886	427.67
377.349	439.37
377.811	439.97
378.274	453.42
378.737	461.02
379.199	467.92
379.662	483.32
380.125	517.72
380.587	574.92
381.05	611.02
381.512	612.57
381.975	586.07
382.437	582.92
382.9	573.87
383.362	578.67
383.825	604.67
384.287	762.72
384.75	845.77
385.212	752.62
385.674	624.92
386.136	568.37
386.599	567.52
387.061	596.02
387.523	620.37
387.985	624.02
388.447	651.27
388.91	722.52
389.372	872.22
389.834	817.02
390.296	685.77
390.758	700.47
391.22	727.72
391.682	911.02
392.144	1426.22
392.606	1329.77
393.068	756.42
393.529	680.97
393.991	658.32
394.453	649.67
394.915	685.92
395.377	856.57
395.838	1057.77
396.3	738.77
396.762	564.42
397.224	526.22
397.685	515.52
398.147	522.07
398.608	531.72
399.07	537.12
399.531	530.72
399.993	543.52
400.454	542.57
400.916	541.07
401.377	564.57
401.839	560.07
402.3	568.77
402.762	590.82
403.223	661.72
403.684	670.77
404.145	610.42
404.607	595.87
405.068	595.92
405.529	624.17
405.99	627.87
406.451	631.82
406.913	611.42
407.374	626.07
407.835	627.32
408.296	648.32
408.757	648.57
409.218	675.12
409.679	677.97
410.14	683.12
410.601	707.32
411.062	740.87
411.522	851.37
411.983	936.67
412.444	807.12
412.905	705.77
413.366	710.27
413.826	730.77
414.287	810.37
414.748	962.22
415.208	981.22
415.669	821.27
416.13	750.52
416.59	737.27
417.051	760.37
417.511	792.52
417.972	851.07
418.432	915.77
418.893	1025.07
419.353	969.27
419.814	749.02
420.274	678.12
420.734	680.02
421.195	729.52
421.655	749.22
422.115	727.07
422.576	700.07
423.036	696.02
423.496	731.27
423.956	762.02
424.416	808.92
424.876	918.82
425.336	916.77
425.797	912.37
426.257	915.72
426.717	858.17
427.177	800.07
427.637	823.77
428.097	867.32
428.556	913.17
429.016	988.62
429.476	987.77
429.936	958.67
430.396	941.27
430.856	945.02
431.315	976.87
431.775	1037.87
432.235	1106.42
432.694	1118.92
433.154	1049.22
433.614	1022.17
434.073	992.92
434.533	900.52
434.993	865.32
435.452	867.77
435.912	847.67
436.371	846.32
436.83	844.57
437.29	859.17
437.749	810.47
438.209	794.52
438.668	799.07
439.127	820.92
439.587	798.27
440.046	765.52
440.505	776.77
440.964	775.47
441.424	789.32
441.883	814.22
442.342	774.17
442.801	742.57
443.26	757.62
443.719	758.92
444.178	750.02
444.637	758.22
445.096	759.27
445.555	774.32
446.014	777.97
446.473	742.62
446.932	759.77
447.391	770.27
447.849	774.82
448.308	764.72
448.767	784.67
449.226	804.72
449.685	807.17
450.143	840.52
450.602	841.62
451.061	811.22
451.519	820.27
451.978	838.42
452.436	855.57
452.895	823.87
453.353	797.87
453.812	808.77
454.27	800.97
454.729	775.72
455.187	781.02
455.646	779.62
456.104	796.82
456.562	789.02
457.021	791.77
457.479	757.92
457.937	782.22
458.395	800.12
458.854	786.52
459.312	783.32
459.77	786.67
460.228	797.87
460.686	811.52
461.144	811.07
461.602	799.17
462.06	804.07
462.518	826.72
462.976	818.87
463.434	833.47
463.892	838.02
464.35	853.77
464.808	864.37
465.266	870.57
465.724	887.07
466.181	900.72
466.639	887.22
467.097	925.77
467.555	953.07
468.012	946.32
468.47	953.52
468.928	988.47
469.385	1017.57
469.843	1021.82
470.3	1016.47
470.758	1050.82
471.215	1058.22
471.673	1087.87
472.13	1119.87
472.588	1142.47
473.045	1141.52
473.503	1161.82
473.96	1218.42
474.417	1236.67
474.875	1290.12
475.332	1331.47
475.789	1354.57
476.246	1393.52
476.704	1468.72
477.161	1507.62
477.618	1549.32
478.075	1644.62
478.532	1778.22
478.989	1919.82
479.446	2132.67
479.903	2262.77
480.36	2494.82
480.817	2673.67
481.274	2867.82
481.731	3166.57
482.188	3409.37
482.645	3691.92
483.102	3901.02
483.558	4217.47
484.015	4426.92
484.472	4423.02
484.929	4276.57
485.385	4080.67
485.842	3979.17
486.299	3769.77
486.755	3376.92
487.212	3006.62
487.668	2692.22
488.125	2484.47
488.582	2282.47
489.038	2186.92
489.494	2102.12
489.951	2022.27
490.407	1974.62
490.864	1953.52
491.32	1903.52
491.776	1873.07
492.233	1864.27
492.689	1842.02
493.145	1819.67
493.602	1809.02
494.058	1835.42
494.514	1855.22
494.97	1869.32
495.426	1872.12
495.882	1894.92
496.338	1882.62
496.794	1957.87
497.251	1971.47
497.707	1962.47
498.163	1969.07
498.618	1976.12
499.074	1984.17
499.53	2020.52
499.986	2058.42
500.442	2082.22
500.898	2102.37
501.354	2117.42
501.809	2140.87
502.265	2160.77
502.721	2278.32
503.177	2329.27
503.632	2208.42
504.088	2223.62
504.543	2430.42
504.999	2266.62
505.455	2010.07
505.91	1910.67
506.366	1897.62
506.821	1903.02
507.277	1874.42
507.732	1889.72
508.187	1888.12
508.643	1896.02
509.098	1903.77
509.553	1929.27
510.009	1945.97
510.464	1980.02
510.919	1997.82
511.375	2030.47
511.83	2045.67
512.285	2081.87
512.74	2135.87
513.195	2165.17
513.65	2201.82
514.105	2242.47
514.56	2253.37
515.015	2290.57
515.47	2337.12
515.925	2309.22
516.38	2303.67
516.835	2286.47
517.29	2301.27
517.745	2287.77
518.2	2265.17
518.655	2195.97
519.109	2163.57
519.564	2137.32
520.019	2129.82
520.474	2090.87
520.928	2075.77
521.383	2075.32
521.838	2074.77
522.292	2050.97
522.747	2020.87
523.201	2027.17
523.656	1986.82
524.11	1990.52
524.565	1993.07
525.019	1992.72
525.474	2006.02
525.928	1998.67
526.382	1979.37
526.837	1958.87
527.291	1968.02
527.745	1947.62
528.2	1943.97
528.654	1935.82
529.108	1943.32
529.562	1943.67
530.016	1943.22
530.47	1953.62
530.925	1958.47
531.379	1954.32
531.833	1985.02
532.287	1976.12
532.741	1957.87
533.195	1959.37
533.649	1965.57
534.103	1958.77
534.556	1948.17
535.01	1956.17
535.464	1955.77
535.918	1962.62
536.372	1975.12
536.826	1963.42
537.279	1955.57
537.733	1938.02
538.187	1962.92
538.64	1960.72
539.094	1990.62
539.548	2011.82
540.001	1992.57
540.455	2001.82
540.908	2012.82
541.362	2043.37
541.815	2056.42
542.269	2092.77
542.722	2085.32
543.175	2113.12
543.629	2126.22
544.082	2145.32
544.536	2165.62
544.989	2161.07
545.442	2166.72
545.895	2162.32
546.349	2169.12
546.802	2170.92
547.255	2170.62
547.708	2187.97
548.161	2210.32
548.614	2206.97
549.067	2212.72
549.52	2212.22
549.973	2176.37
550.426	2164.12
550.879	2153.32
551.332	2138.12
551.785	2163.32
552.238	2185.87
552.691	2186.47
553.144	2216.07
553.596	2251.77
554.049	2282.07
554.502	2318.32
554.955	2363.92
555.407	2407.77
555.86	2372.32
556.313	2345.92
556.765	2328.67
557.218	2290.57
557.67	2293.82
558.123	2260.42
558.576	2245.22
559.028	2249.77
559.48	2275.12
559.933	2266.67
560.385	2201.47
560.838	2122.52
561.29	2070.17
561.742	2054.87
562.195	2005.47
562.647	1998.97
563.099	1998.77
563.551	1987.82
564.004	2012.82
564.456	2000.17
564.908	1954.67
565.36	1922.27
565.812	1877.47
566.264	1863.67
566.716	1842.22
567.168	1818.77
567.62	1820.82
568.072	1800.57
568.524	1776.17
568.976	1768.92
569.428	1746.92
569.88	1746.47
570.332	1764.77
570.784	1749.47
571.235	1743.62
571.687	1758.07
572.139	1758.87
572.59	1781.32
573.042	1782.02
573.494	1777.22
573.945	1748.97
574.397	1717.72
574.849	1715.82
575.3	1725.97
575.752	1695.67
576.203	1691.92
576.655	1699.77
577.106	1676.67
577.557	1664.47
578.009	1655.77
578.46	1663.77
578.912	1646.77
579.363	1661.57
579.814	1651.37
580.265	1653.02
580.717	1653.82
581.168	1655.02
581.619	1662.42
582.07	1676.12
582.521	1680.52
582.972	1679.37
583.423	1709.07
583.875	1776.17
584.326	1926.02
584.777	2221.32
585.227	2555.57
585.678	2820.22
586.129	2889.47
586.58	2957.02
587.031	2984.17
587.482	3231.62
587.933	4077.77
588.384	3573.07
588.834	2645.22
589.285	1996.72
589.736	1908.32
590.186	1906.47
590.637	1886.37
591.088	1836.22
591.538	1822.67
591.989	1798.12
592.439	1779.32
592.89	1778.72
593.34	1776.32
593.791	1785.27
594.241	1786.12
594.692	1821.17
595.142	1792.22
595.593	1763.87
596.043	1770.67
596.493	1795.02
596.943	1833.92
597.394	1824.82
597.844	1790.92
598.294	1807.42
598.744	1877.17
599.195	1959.62
599.645	2064.82
600.095	2170.97
600.545	2279.72
600.995	2383.92
601.445	2462.67
601.895	2577.32
602.345	2656.12
602.795	2611.42
603.245	2507.97
603.695	2355.07
604.145	2233.32
604.594	2118.42
605.044	2016.57
605.494	1888.12
605.944	1794.87
606.393	1764.72
606.843	1740.87
607.293	1748.07
607.743	1733.32
608.192	1759.27
608.642	1756.52
609.091	1775.52
609.541	1752.47
609.99	1741.37
610.44	1715.07
610.889	1701.02
611.339	1679.82
611.788	1668.22
612.238	1697.92
612.687	1727.72
613.136	1738.07
613.586	1764.67
614.035	1764.52
614.484	1785.27
614.933	1807.77
615.383	1756.52
615.832	1689.62
616.281	1660.62
616.73	1607.87
617.179	1564.27
617.628	1526.07
618.077	1505.82
618.526	1483.47
618.975	1472.07
619.424	1452.27
619.873	1447.37
620.322	1443.27
620.771	1432.17
621.22	1408.72
621.669	1382.47
622.118	1383.12
622.567	1367.52
623.015	1334.32
623.464	1336.72
623.913	1313.42
624.361	1313.72
624.81	1311.97
625.259	1304.87
625.707	1287.12
626.156	1303.97
626.604	1313.22
627.053	1312.37
627.501	1310.32
627.95	1324.67
628.398	1340.92
628.847	1318.32
629.295	1326.97
629.744	1348.37
630.192	1388.47
630.64	1488.52
631.089	1639.62
631.537	1713.87
631.985	1720.37
632.433	1781.72
632.881	1781.07
633.33	2130.57
633.778	2329.57
634.226	1648.32
634.674	1529.52
635.122	1503.37
635.57	1531.77
636.018	1774.52
636.466	1451.57
636.914	1287.27
637.362	1280.62
637.81	1302.07
638.258	1340.57
638.705	1354.52
639.153	1391.77
639.601	1399.22
640.049	1426.72
640.497	1472.57
640.944	1501.02
641.392	1439.67
641.84	1361.32
642.287	1310.57
642.735	1296.67
643.182	1282.67
643.63	1283.67
644.078	1302.52
644.525	1320.87
644.973	1356.27
645.42	1376.97
645.867	1386.47
646.315	1422.07
646.762	1475.17
647.21	1513.82
647.657	1597.92
648.104	1675.97
648.551	1731.77
648.999	1889.52
649.446	2083.22
649.893	2367.37
650.34	2806.12
650.787	3505.47
651.234	4586.97
651.682	6435.32
652.129	9290.52
652.576	13325.92
653.023	15535.12
653.47	15538.32
653.917	15538.37
654.363	15538.27
654.81	15535.27
655.257	15535.92
655.704	15537.17
656.151	10003.07
656.598	6475.57
657.044	4556.87
657.491	3523.22
657.938	2836.97
658.385	2373.07
658.831	2092.37
659.278	1863.77
659.724	1697.17
660.171	1567.42
660.618	1455.22
661.064	1362.02
661.511	1313.92
661.957	1262.22
662.404	1237.07
662.85	1214.37
663.296	1205.92
663.743	1176.17
664.189	1160.12
664.635	1158.82
665.082	1131.12
665.528	1116.92
665.974	1084.07
666.42	1087.97
666.867	1100.37
667.313	1113.67
667.759	1184.22
668.205	1181.77
668.651	1199.87
669.097	1161.82
669.543	1275.87
669.989	1187.82
670.435	1016.82
670.881	1009.92
671.327	1053.22
671.773	1115.87
672.219	1204.02
672.665	1268.12
673.11	1306.37
673.556	1330.27
674.002	1353.22
674.448	1361.22
674.893	1161.02
675.339	1004.87
675.785	939.42
676.23	896.37
676.676	859.32
677.122	839.17
677.567	819.57
678.013	789.42
678.458	794.77
678.904	782.57
679.349	775.52
679.794	774.97
680.24	770.97
680.685	769.72
681.131	767.02
681.576	761.12
682.021	773.97
682.466	774.92
682.912	786.97
683.357	822.47
683.802	894.72
684.247	977.87
684.692	1032.92
685.137	1073.72
685.583	1104.17
686.028	1152.72
686.473	1092.02
686.918	954.12
687.363	863.27
687.807	826.72
688.252	789.37
688.697	763.87
689.142	737.47
689.587	739.12
690.032	759.47
690.477	783.47
690.921	822.62
691.366	869.57
691.811	903.92
692.255	974.87
692.7	1191.37
693.145	1719.67
693.589	2606.77
694.034	3076.42
694.478	3271.82
694.923	2977.22
695.367	4201.37
695.812	2575.82
696.256	1094.87
696.701	805.32
697.145	754.57
697.59	722.27
698.034	722.17
698.478	718.02
698.922	723.87
699.367	741.07
699.811	781.27
700.255	836.72
700.699	924.52
701.143	998.67
701.588	1049.12
702.032	1087.37
702.476	1118.47
702.92	1183.97
703.364	1551.32
703.808	2377.42
704.252	2951.97
704.696	3111.97
705.14	2927.82
705.584	3981.77
706.027	2234.07
706.471	1122.77
706.915	843.02
707.359	751.32
707.803	715.37
708.246	682.17
708.69	680.72
709.134	678.37
709.577	672.52
710.021	683.92
710.465	674.67
710.908	673.82
711.352	700.42
711.795	778.92
712.239	829.82
712.682	856.47
713.126	850.57
713.569	951.27
714.012	780.77
714.456	693.62
714.899	653.92
715.342	612.57
715.786	582.77
716.229	561.92
716.672	551.42
717.115	549.12
717.558	561.47
718.002	582.02
718.445	601.12
718.888	634.07
719.331	639.02
719.774	656.37
720.217	645.27
720.66	601.72
721.103	568.42
721.546	541.32
721.989	527.92
722.432	522.97
722.874	527.97
723.317	528.67
723.76	582.67
724.203	710.82
724.645	942.37
725.088	1106.42
725.531	1077.57
725.974	1172.22
726.416	1044.47
726.859	661.97
727.301	541.17
727.744	518.37
728.187	518.07
728.629	530.27
729.071	553.27
729.514	579.97
729.956	593.52
730.399	612.22
730.841	606.42
731.283	590.27
731.726	570.77
732.168	583.37
732.61	617.82
733.053	663.22
733.495	736.22
733.937	819.62
734.379	960.72
734.821	1228.42
735.263	1962.87
735.705	3522.92
736.148	5123.32
736.59	5080.87
737.032	5468.37
737.474	4519.62
737.916	1748.62
738.357	925.42
738.799	716.57
739.241	666.22
739.683	663.67
740.125	677.17
740.567	685.67
741.008	712.77
741.45	744.12
741.892	773.27
742.334	770.22
742.775	761.22
743.217	718.77
743.658	625.12
744.1	639.47
