Data from 20170804-ORNL-Ar-NYSim_Subt2_13-21-23-837.txt Node
Date: Fri Aug 04 13:21:23 EDT 2017
User: Ender
Spectrometer: HR+D1039
Trigger mode: 0
Integration Time (sec): 4.300000E-3
Scans to average: 1
Electric dark correction enabled: true
Nonlinearity correction enabled: false
Boxcar width: 0
XAxis mode: Wavelengths
Number of Pixels in Spectrum: 2048
>>>>>Begin Spectral Data<<<<<
187.836	0.19
188.309	0.19
188.782	0.19
189.255	9.19
189.728	8.19
190.201	-2.81
190.674	-0.81
191.147	6.19
191.619	-7.81
192.092	-14.81
192.565	-10.81
193.038	-11.81
193.511	8.19
193.984	7.19
194.456	21.19
194.929	1.19
195.402	-11.81
195.874	-0.81
196.347	6.19
196.82	0.19
197.292	-2.81
197.765	10.19
198.237	10.19
198.71	11.19
199.182	17.19
199.655	-1.81
200.127	-6.81
200.6	-23.81
201.072	-7.81
201.544	-13.81
202.017	11.19
202.489	-7.81
202.961	13.19
203.433	5.19
203.906	4.19
204.378	-0.81
204.85	-7.81
205.322	9.19
205.794	1.19
206.266	10.19
206.739	15.19
207.211	-4.81
207.683	-32.81
208.155	-5.81
208.627	15.19
209.099	-3.81
209.57	34.19
210.042	-7.81
210.514	-11.81
210.986	6.19
211.458	-7.81
211.93	-6.81
212.402	5.19
212.873	-5.81
213.345	7.19
213.817	7.19
214.288	-7.81
214.76	-3.81
215.232	17.19
215.703	14.19
216.175	-1.81
216.646	-1.81
217.118	1.19
217.589	-4.81
218.061	15.19
218.532	1.19
219.004	-4.81
219.475	-3.81
219.946	-18.81
220.418	13.19
220.889	23.19
221.36	29.19
221.832	12.19
222.303	-4.81
222.774	-0.81
223.245	18.19
223.717	1.19
224.188	7.19
224.659	-12.81
225.13	-1.81
225.601	-3.81
226.072	-12.81
226.543	10.19
227.014	16.19
227.485	17.19
227.956	5.19
228.427	19.19
228.898	3.19
229.369	6.19
229.839	1.19
230.31	-0.81
230.781	14.19
231.252	12.19
231.722	-9.81
232.193	-20.81
232.664	-10.81
233.135	6.19
233.605	3.19
234.076	21.19
234.546	7.19
235.017	4.19
235.487	12.19
235.958	18.19
236.428	-2.81
236.899	27.19
237.369	21.19
237.84	21.19
238.31	23.19
238.78	14.19
239.251	21.19
239.721	17.19
240.191	28.19
240.662	-16.81
241.132	19.19
241.602	-12.81
242.072	13.19
242.542	1.19
243.013	-1.81
243.483	12.19
243.953	26.19
244.423	19.19
244.893	21.19
245.363	7.19
245.833	3.19
246.303	22.19
246.773	14.19
247.243	11.19
247.712	33.19
248.182	0.19
248.652	-1.81
249.122	18.19
249.592	57.19
250.061	40.19
250.531	49.19
251.001	77.19
251.471	50.19
251.94	43.19
252.41	42.19
252.879	21.19
253.349	20.19
253.818	5.19
254.288	0.19
254.757	29.19
255.227	33.19
255.696	22.19
256.166	37.19
256.635	22.19
257.105	29.19
257.574	40.19
258.043	50.19
258.513	31.19
258.982	57.19
259.451	33.19
259.92	40.19
260.389	55.19
260.859	10.19
261.328	57.19
261.797	35.19
262.266	22.19
262.735	25.19
263.204	23.19
263.673	11.19
264.142	10.19
264.611	28.19
265.08	32.19
265.549	19.19
266.018	21.19
266.487	16.19
266.955	25.19
267.424	49.19
267.893	22.19
268.362	22.19
268.83	23.19
269.299	16.19
269.768	22.19
270.236	18.19
270.705	39.19
271.174	33.19
271.642	3.19
272.111	29.19
272.579	31.19
273.048	74.19
273.516	80.19
273.985	59.19
274.453	36.19
274.922	35.19
275.39	0.19
275.858	9.19
276.327	19.19
276.795	34.19
277.263	39.19
277.731	56.19
278.2	147.19
278.668	228.19
279.136	171.19
279.604	76.19
280.072	37.19
280.54	22.19
281.008	55.19
281.477	47.19
281.945	27.19
282.413	18.19
282.881	45.19
283.348	44.19
283.816	41.19
284.284	44.19
284.752	39.19
285.22	31.19
285.688	18.19
286.156	65.19
286.623	72.19
287.091	110.19
287.559	75.19
288.026	44.19
288.494	33.19
288.962	29.19
289.429	36.19
289.897	46.19
290.364	48.19
290.832	32.19
291.3	35.19
291.767	29.19
292.234	38.19
292.702	35.19
293.169	48.19
293.637	36.19
294.104	48.19
294.571	72.19
295.039	47.19
295.506	24.19
295.973	59.19
296.44	72.19
296.908	64.19
297.375	28.19
297.842	62.19
298.309	45.19
298.776	53.19
299.243	73.19
299.71	59.19
300.177	57.19
300.644	75.19
301.111	57.19
301.578	35.19
302.045	57.19
302.512	44.19
302.979	72.19
303.446	27.19
303.913	61.19
304.379	39.19
304.846	61.19
305.313	44.19
305.78	64.19
306.246	53.19
306.713	60.19
307.18	61.19
307.646	45.19
308.113	74.19
308.579	62.19
309.046	72.19
309.512	61.19
309.979	52.19
310.445	57.19
310.912	74.19
311.378	81.19
311.845	58.19
312.311	51.19
312.777	51.19
313.244	53.19
313.71	86.19
314.176	58.19
314.642	64.19
315.109	84.19
315.575	68.19
316.041	81.19
316.507	65.19
316.973	86.19
317.439	80.19
317.905	94.19
318.371	73.19
318.837	59.19
319.303	72.19
319.769	95.19
320.235	95.19
320.701	89.19
321.167	78.19
321.633	83.19
322.099	101.19
322.564	83.19
323.03	76.19
323.496	78.19
323.962	95.19
324.427	89.19
324.893	107.19
325.359	101.19
325.824	89.19
326.29	61.19
326.755	92.19
327.221	93.19
327.686	101.19
328.152	86.19
328.617	72.19
329.083	109.19
329.548	83.19
330.014	133.19
330.479	99.19
330.944	129.19
331.41	79.19
331.875	85.19
332.34	88.19
332.805	99.19
333.271	103.19
333.736	91.19
334.201	119.19
334.666	100.19
335.131	105.19
335.596	115.19
336.061	112.19
336.526	104.19
336.991	78.19
337.456	111.19
337.921	114.19
338.386	119.19
338.851	104.19
339.316	118.19
339.781	122.19
340.246	117.19
340.711	129.19
341.175	107.19
341.64	120.19
342.105	141.19
342.569	109.19
343.034	135.19
343.499	139.19
343.963	106.19
344.428	113.19
344.893	119.19
345.357	135.19
345.822	157.19
346.286	111.19
346.751	131.19
347.215	124.19
347.679	131.19
348.144	165.19
348.608	146.19
349.073	152.19
349.537	133.19
350.001	155.19
350.465	155.19
350.93	156.19
351.394	156.19
351.858	168.19
352.322	151.19
352.786	172.19
353.25	159.19
353.715	187.19
354.179	178.19
354.643	191.19
355.107	168.19
355.571	173.19
356.035	191.19
356.498	173.19
356.962	179.19
357.426	216.19
357.89	172.19
358.354	202.19
358.818	178.19
359.281	161.19
359.745	172.19
360.209	175.19
360.673	178.19
361.136	189.19
361.6	184.19
362.064	159.19
362.527	172.19
362.991	173.19
363.454	184.19
363.918	144.19
364.381	207.19
364.845	160.19
365.308	155.19
365.772	179.19
366.235	170.19
366.698	185.19
367.162	199.19
367.625	209.19
368.088	231.19
368.552	220.19
369.015	176.19
369.478	220.19
369.941	193.19
370.404	194.19
370.867	227.19
371.331	221.19
371.794	200.19
372.257	213.19
372.72	239.19
373.183	234.19
373.646	194.19
374.109	208.19
374.572	184.19
375.035	210.19
375.497	209.19
375.96	237.19
376.423	195.19
376.886	214.19
377.349	196.19
377.811	210.19
378.274	239.19
378.737	236.19
379.199	248.19
379.662	254.19
380.125	263.19
380.587	253.19
381.05	258.19
381.512	263.19
381.975	293.19
382.437	281.19
382.9	234.19
383.362	257.19
383.825	264.19
384.287	277.19
384.75	271.19
385.212	293.19
385.674	249.19
386.136	291.19
386.599	259.19
387.061	285.19
387.523	289.19
387.985	287.19
388.447	314.19
388.91	311.19
389.372	356.19
389.834	305.19
390.296	327.19
390.758	311.19
391.22	341.19
391.682	408.19
392.144	565.19
392.606	526.19
393.068	377.19
393.529	353.19
393.991	317.19
394.453	313.19
394.915	320.19
395.377	372.19
395.838	401.19
396.3	370.19
396.762	291.19
397.224	281.19
397.685	294.19
398.147	262.19
398.608	268.19
399.07	282.19
399.531	249.19
399.993	277.19
400.454	314.19
400.916	311.19
401.377	291.19
401.839	266.19
402.3	297.19
402.762	327.19
403.223	348.19
403.684	355.19
404.145	311.19
404.607	340.19
405.068	320.19
405.529	365.19
405.99	337.19
406.451	349.19
406.913	297.19
407.374	314.19
407.835	336.19
408.296	386.19
408.757	335.19
409.218	361.19
409.679	349.19
410.14	354.19
410.601	342.19
411.062	392.19
411.522	377.19
411.983	391.19
412.444	369.19
412.905	361.19
413.366	370.19
413.826	392.19
414.287	433.19
414.748	507.19
415.208	534.19
415.669	403.19
416.13	444.19
416.59	422.19
417.051	412.19
417.511	457.19
417.972	464.19
418.432	514.19
418.893	548.19
419.353	517.19
419.814	391.19
420.274	376.19
420.734	360.19
421.195	432.19
421.655	421.19
422.115	414.19
422.576	389.19
423.036	378.19
423.496	412.19
423.956	405.19
424.416	475.19
424.876	493.19
425.336	501.19
425.797	487.19
426.257	493.19
426.717	471.19
427.177	489.19
427.637	441.19
428.097	447.19
428.556	444.19
429.016	490.19
429.476	523.19
429.936	507.19
430.396	525.19
430.856	545.19
431.315	577.19
431.775	598.19
432.235	604.19
432.694	620.19
433.154	602.19
433.614	588.19
434.073	552.19
434.533	505.19
434.993	488.19
435.452	499.19
435.912	463.19
436.371	464.19
436.83	488.19
437.29	442.19
437.749	440.19
438.209	414.19
438.668	406.19
439.127	447.19
439.587	477.19
440.046	428.19
440.505	421.19
440.964	396.19
441.424	445.19
441.883	446.19
442.342	415.19
442.801	387.19
443.26	398.19
443.719	397.19
444.178	409.19
444.637	439.19
445.096	437.19
445.555	436.19
446.014	396.19
446.473	390.19
446.932	432.19
447.391	430.19
447.849	421.19
448.308	417.19
448.767	422.19
449.226	423.19
449.685	438.19
450.143	457.19
450.602	418.19
451.061	414.19
451.519	393.19
451.978	428.19
452.436	421.19
452.895	421.19
453.353	438.19
453.812	430.19
454.27	465.19
454.729	405.19
455.187	445.19
455.646	412.19
456.104	416.19
456.562	388.19
457.021	434.19
457.479	418.19
457.937	416.19
458.395	466.19
458.854	440.19
459.312	409.19
459.77	447.19
460.228	449.19
460.686	433.19
461.144	427.19
461.602	411.19
462.06	444.19
462.518	462.19
462.976	432.19
463.434	462.19
463.892	477.19
464.35	482.19
464.808	467.19
465.266	453.19
465.724	477.19
466.181	499.19
466.639	498.19
467.097	515.19
467.555	520.19
468.012	535.19
468.47	525.19
468.928	497.19
469.385	553.19
469.843	607.19
470.3	605.19
470.758	578.19
471.215	565.19
471.673	583.19
472.13	642.19
472.588	656.19
473.045	634.19
473.503	651.19
473.96	676.19
474.417	667.19
474.875	697.19
475.332	748.19
475.789	740.19
476.246	820.19
476.704	848.19
477.161	828.19
477.618	797.19
478.075	889.19
478.532	962.19
478.989	1047.19
479.446	1155.19
479.903	1202.19
480.36	1310.19
480.817	1455.19
481.274	1547.19
481.731	1700.19
482.188	1838.19
482.645	1981.19
483.102	2097.19
483.558	2309.19
484.015	2423.19
484.472	2413.19
484.929	2354.19
485.385	2230.19
485.842	2145.19
486.299	1983.19
486.755	1799.19
487.212	1611.19
487.668	1475.19
488.125	1335.19
488.582	1205.19
489.038	1132.19
489.494	1114.19
489.951	1079.19
490.407	1051.19
490.864	1023.19
491.32	1021.19
491.776	1000.19
492.233	1013.19
492.689	962.19
493.145	970.19
493.602	948.19
494.058	955.19
494.514	974.19
494.97	965.19
495.426	959.19
495.882	982.19
496.338	955.19
496.794	1018.19
497.251	943.19
497.707	968.19
498.163	1009.19
498.618	984.19
499.074	992.19
499.53	1004.19
499.986	1037.19
500.442	968.19
500.898	989.19
501.354	991.19
501.809	1020.19
502.265	1017.19
502.721	977.19
503.177	1017.19
503.632	996.19
504.088	1057.19
504.543	1055.19
504.999	1019.19
505.455	1015.19
505.91	998.19
506.366	997.19
506.821	1009.19
507.277	986.19
507.732	1007.19
508.187	1001.19
508.643	1012.19
509.098	1004.19
509.553	1030.19
510.009	1034.19
510.464	1056.19
510.919	1058.19
511.375	1070.19
511.83	1070.19
512.285	1084.19
512.74	1115.19
513.195	1140.19
513.65	1187.19
514.105	1188.19
514.56	1166.19
515.015	1212.19
515.47	1181.19
515.925	1227.19
516.38	1166.19
516.835	1196.19
517.29	1181.19
517.745	1205.19
518.2	1153.19
518.655	1162.19
519.109	1097.19
519.564	1103.19
520.019	1110.19
520.474	1095.19
520.928	1076.19
521.383	1123.19
521.838	1095.19
522.292	1069.19
522.747	1065.19
523.201	1066.19
523.656	1057.19
524.11	1075.19
524.565	1060.19
525.019	1067.19
525.474	1004.19
525.928	1031.19
526.382	1038.19
526.837	1035.19
527.291	1039.19
527.745	1044.19
528.2	1007.19
528.654	1041.19
529.108	1001.19
529.562	1044.19
530.016	1013.19
530.47	1026.19
530.925	1013.19
531.379	1014.19
531.833	1026.19
532.287	1004.19
532.741	1033.19
533.195	1017.19
533.649	1023.19
534.103	1042.19
534.556	1013.19
535.01	1039.19
535.464	1024.19
535.918	1033.19
536.372	1044.19
536.826	1035.19
537.279	1014.19
537.733	999.19
538.187	1024.19
538.64	1043.19
539.094	1009.19
539.548	1047.19
540.001	1024.19
540.455	979.19
540.908	1067.19
541.362	1052.19
541.815	1053.19
542.269	1079.19
542.722	1093.19
543.175	1036.19
543.629	1123.19
544.082	1079.19
544.536	1105.19
544.989	1121.19
545.442	1139.19
545.895	1114.19
546.349	1102.19
546.802	1133.19
547.255	1104.19
547.708	1134.19
548.161	1148.19
548.614	1154.19
549.067	1190.19
549.52	1141.19
549.973	1149.19
550.426	1141.19
550.879	1112.19
551.332	1123.19
551.785	1136.19
552.238	1132.19
552.691	1155.19
553.144	1140.19
553.596	1181.19
554.049	1217.19
554.502	1218.19
554.955	1247.19
555.407	1260.19
555.86	1271.19
556.313	1224.19
556.765	1210.19
557.218	1180.19
557.67	1222.19
558.123	1217.19
558.576	1200.19
559.028	1184.19
559.48	1183.19
559.933	1154.19
560.385	1161.19
560.838	1115.19
561.29	1063.19
561.742	1065.19
562.195	1031.19
562.647	1061.19
563.099	1030.19
563.551	1011.19
564.004	1016.19
564.456	1012.19
564.908	1025.19
565.36	985.19
565.812	940.19
566.264	966.19
566.716	939.19
567.168	916.19
567.62	922.19
568.072	921.19
568.524	936.19
568.976	915.19
569.428	910.19
569.88	895.19
570.332	880.19
570.784	945.19
571.235	907.19
571.687	888.19
572.139	946.19
572.59	923.19
573.042	907.19
573.494	943.19
573.945	901.19
574.397	932.19
574.849	900.19
575.3	860.19
575.752	868.19
576.203	870.19
576.655	876.19
577.106	893.19
577.557	855.19
578.009	838.19
578.46	868.19
578.912	886.19
579.363	858.19
579.814	840.19
580.265	853.19
580.717	822.19
581.168	839.19
581.619	823.19
582.07	900.19
582.521	857.19
582.972	858.19
583.423	886.19
583.875	930.19
584.326	966.19
584.777	1116.19
585.227	1365.19
585.678	1576.19
586.129	1782.19
586.58	1802.19
587.031	1878.19
587.482	2000.19
587.933	2542.19
588.384	2291.19
588.834	1639.19
589.285	1068.19
589.736	978.19
590.186	1003.19
590.637	954.19
591.088	978.19
591.538	950.19
591.989	907.19
592.439	900.19
592.89	921.19
593.34	915.19
593.791	871.19
594.241	878.19
594.692	851.19
595.142	845.19
595.593	845.19
596.043	859.19
596.493	890.19
596.943	897.19
597.394	894.19
597.844	891.19
598.294	912.19
598.744	933.19
599.195	973.19
599.645	1068.19
600.095	1135.19
600.545	1162.19
600.995	1204.19
601.445	1265.19
601.895	1325.19
602.345	1390.19
602.795	1347.19
603.245	1262.19
603.695	1209.19
604.145	1141.19
604.594	1087.19
605.044	1029.19
605.494	954.19
605.944	944.19
606.393	895.19
606.843	859.19
607.293	865.19
607.743	900.19
608.192	898.19
608.642	896.19
609.091	895.19
609.541	946.19
609.99	855.19
610.44	867.19
610.889	906.19
611.339	834.19
611.788	855.19
612.238	887.19
612.687	849.19
613.136	882.19
613.586	908.19
614.035	880.19
614.484	919.19
614.933	913.19
615.383	863.19
615.832	860.19
616.281	839.19
616.73	785.19
617.179	801.19
617.628	760.19
618.077	788.19
618.526	778.19
618.975	784.19
619.424	761.19
619.873	730.19
620.322	717.19
620.771	697.19
621.22	713.19
621.669	692.19
622.118	672.19
622.567	691.19
623.015	673.19
623.464	667.19
623.913	678.19
624.361	673.19
624.81	648.19
625.259	654.19
625.707	649.19
626.156	635.19
626.604	667.19
627.053	665.19
627.501	674.19
627.95	662.19
628.398	692.19
628.847	649.19
629.295	675.19
629.744	648.19
630.192	629.19
630.64	661.19
631.089	675.19
631.537	620.19
631.985	638.19
632.433	621.19
632.881	621.19
633.33	657.19
633.778	655.19
634.226	632.19
634.674	628.19
635.122	608.19
635.57	633.19
636.018	693.19
636.466	669.19
636.914	666.19
637.362	639.19
637.81	659.19
638.258	656.19
638.705	691.19
639.153	726.19
639.601	727.19
640.049	683.19
640.497	732.19
640.944	731.19
641.392	724.19
641.84	691.19
642.287	686.19
642.735	634.19
643.182	663.19
643.63	661.19
644.078	660.19
644.525	610.19
644.973	661.19
645.42	689.19
645.867	732.19
646.315	731.19
646.762	737.19
647.21	786.19
647.657	813.19
648.104	818.19
648.551	849.19
648.999	931.19
649.446	1042.19
649.893	1124.19
650.34	1305.19
650.787	1652.19
651.234	2044.19
651.682	2773.19
652.129	3984.19
652.576	5882.19
653.023	8332.19
653.47	10524.19
653.917	11717.19
654.363	12220.19
654.81	12751.19
655.257	12852.19
655.704	8975.19
656.151	5219.19
656.598	3338.19
657.044	2309.19
657.491	1817.19
657.938	1472.19
658.385	1209.19
658.831	1052.19
659.278	944.19
659.724	863.19
660.171	786.19
660.618	733.19
661.064	661.19
661.511	672.19
661.957	639.19
662.404	625.19
662.85	607.19
663.296	615.19
663.743	581.19
664.189	576.19
664.635	596.19
665.082	604.19
665.528	588.19
665.974	539.19
666.42	539.19
666.867	515.19
667.313	501.19
667.759	511.19
668.205	506.19
668.651	526.19
669.097	524.19
669.543	541.19
669.989	531.19
670.435	470.19
670.881	484.19
671.327	465.19
671.773	533.19
672.219	558.19
672.665	653.19
673.11	652.19
673.556	648.19
674.002	672.19
674.448	701.19
674.893	585.19
675.339	497.19
675.785	470.19
676.23	462.19
676.676	423.19
677.122	425.19
677.567	393.19
678.013	355.19
678.458	381.19
678.904	382.19
679.349	381.19
679.794	406.19
680.24	414.19
680.685	407.19
681.131	396.19
681.576	395.19
682.021	370.19
682.466	390.19
682.912	389.19
683.357	404.19
683.802	419.19
684.247	486.19
684.692	523.19
685.137	510.19
685.583	579.19
686.028	597.19
686.473	544.19
686.918	514.19
687.363	425.19
687.807	442.19
688.252	378.19
688.697	406.19
689.142	360.19
689.587	365.19
690.032	388.19
690.477	389.19
690.921	411.19
691.366	437.19
691.811	445.19
692.255	471.19
692.7	522.19
693.145	692.19
693.589	1049.19
694.034	1520.19
694.478	1673.19
694.923	1551.19
695.367	1977.19
695.812	1355.19
696.256	540.19
696.701	392.19
697.145	386.19
697.59	367.19
698.034	339.19
698.478	339.19
698.922	331.19
699.367	336.19
699.811	362.19
700.255	421.19
700.699	461.19
701.143	464.19
701.588	535.19
702.032	532.19
702.476	545.19
702.92	537.19
703.364	669.19
703.808	987.19
704.252	1440.19
704.696	1590.19
705.14	1571.19
705.584	1894.19
706.027	1226.19
706.471	576.19
706.915	421.19
707.359	338.19
707.803	326.19
708.246	338.19
708.69	290.19
709.134	327.19
709.577	343.19
710.021	336.19
710.465	322.19
710.908	341.19
711.352	323.19
711.795	345.19
712.239	419.19
712.682	416.19
713.126	416.19
713.569	468.19
714.012	399.19
714.456	335.19
714.899	301.19
715.342	283.19
715.786	251.19
716.229	277.19
716.672	259.19
717.115	245.19
717.558	265.19
718.002	274.19
718.445	300.19
718.888	306.19
719.331	324.19
719.774	314.19
720.217	327.19
720.66	336.19
721.103	291.19
721.546	283.19
721.989	252.19
722.432	278.19
722.874	282.19
723.317	249.19
723.76	241.19
724.203	283.19
724.645	374.19
725.088	510.19
725.531	549.19
725.974	544.19
726.416	541.19
726.859	332.19
727.301	247.19
727.744	246.19
728.187	255.19
728.629	279.19
729.071	245.19
729.514	307.19
729.956	299.19
730.399	321.19
730.841	271.19
731.283	280.19
731.726	274.19
732.168	288.19
732.61	302.19
733.053	317.19
733.495	341.19
733.937	378.19
734.379	413.19
734.821	528.19
735.263	718.19
735.705	1285.19
736.148	2192.19
736.59	2612.19
737.032	2520.19
737.474	2350.19
737.916	920.19
738.357	475.19
738.799	334.19
739.241	299.19
739.683	302.19
740.125	336.19
740.567	319.19
741.008	349.19
741.45	369.19
741.892	331.19
742.334	401.19
742.775	374.19
743.217	344.19
743.658	279.19
744.1	271.19
744.542	332.19
744.983	333.19
745.425	344.19
745.866	375.19
746.307	306.19
746.749	322.19
747.19	442.19
747.632	693.19
748.073	1408.19
748.514	2291.19
748.956	2876.19
749.397	3848.19
749.838	2949.19
750.279	2444.19
750.72	1519.19
751.162	631.19
751.603	356.19
752.044	260.19
752.485	230.19
752.926	233.19
753.367	185.19
753.808	217.19
754.249	204.19
