Data from MSPlasma+Separation6_Subt14_10-12-28-706.txt Node
Date: Fri Jul 21 10:12:28 EDT 2017
User: Ender
Spectrometer: HR+D1039
Trigger mode: 0
Integration Time (sec): 6.430000E-3
Scans to average: 20
Electric dark correction enabled: true
Nonlinearity correction enabled: false
Boxcar width: 0
XAxis mode: Wavelengths
Number of Pixels in Spectrum: 2048
>>>>>Begin Spectral Data<<<<<
187.836	-0.52
188.309	-0.52
188.782	-0.52
189.255	1.28
189.728	0.73
190.201	-0.37
190.674	-1.82
191.147	1.13
191.619	3.03
192.092	-1.22
192.565	-0.97
193.038	2.43
193.511	0.33
193.984	0.43
194.456	-0.62
194.929	-1.27
195.402	-3.62
195.874	1.13
196.347	-0.22
196.82	4.23
197.292	-4.22
197.765	-1.92
198.237	-1.97
198.71	-1.67
199.182	-0.47
199.655	1.38
200.127	-0.22
200.6	2.53
201.072	3.08
201.544	-3.67
202.017	-0.77
202.489	-3.72
202.961	-3.57
203.433	-1.87
203.906	-1.32
204.378	2.78
204.85	-2.97
205.322	-1.52
205.794	1.33
206.266	-1.67
206.739	0.33
207.211	0.58
207.683	-1.07
208.155	-2.07
208.627	-1.17
209.099	1.73
209.57	1.28
210.042	1.13
210.514	-0.22
210.986	-0.22
211.458	-2.27
211.93	-0.97
212.402	-0.87
212.873	-2.37
213.345	-3.22
213.817	-1.17
214.288	-2.57
214.76	0.78
215.232	-1.37
215.703	3.23
216.175	2.03
216.646	1.08
217.118	-2.17
217.589	-5.12
218.061	-2.57
218.532	-4.02
219.004	8.28
219.475	-1.97
219.946	3.83
220.418	2.73
220.889	1.48
221.36	2.58
221.832	4.58
222.303	2.83
222.774	5.68
223.245	1.38
223.717	-1.17
224.188	3.58
224.659	4.83
225.13	0.03
225.601	3.48
226.072	3.33
226.543	2.58
227.014	0.78
227.485	3.58
227.956	6.28
228.427	8.38
228.898	9.28
229.369	4.08
229.839	7.53
230.31	8.38
230.781	4.48
231.252	2.98
231.722	6.38
232.193	0.73
232.664	2.43
233.135	3.88
233.605	5.73
234.076	7.73
234.546	2.68
235.017	12.83
235.487	8.23
235.958	9.28
236.428	12.53
236.899	5.63
237.369	11.93
237.84	13.23
238.31	13.73
238.78	4.28
239.251	11.23
239.721	7.53
240.191	6.18
240.662	8.28
241.132	9.98
241.602	10.93
242.072	12.28
242.542	4.73
243.013	6.73
243.483	16.73
243.953	8.68
244.423	12.48
244.893	11.33
245.363	13.73
245.833	11.73
246.303	11.18
246.773	16.28
247.243	15.38
247.712	16.28
248.182	13.03
248.652	19.63
249.122	17.58
249.592	15.28
250.061	12.18
250.531	16.23
251.001	17.23
251.471	18.13
251.94	19.13
252.41	19.08
252.879	18.53
253.349	23.43
253.818	17.48
254.288	26.53
254.757	24.28
255.227	22.33
255.696	20.73
256.166	25.83
256.635	24.63
257.105	27.03
257.574	25.93
258.043	24.78
258.513	24.98
258.982	26.23
259.451	24.68
259.92	21.53
260.389	30.03
260.859	23.38
261.328	26.03
261.797	25.78
262.266	26.43
262.735	29.18
263.204	25.23
263.673	30.53
264.142	27.98
264.611	30.38
265.08	28.38
265.549	30.38
266.018	29.13
266.487	30.38
266.955	26.13
267.424	34.83
267.893	37.08
268.362	32.53
268.83	32.33
269.299	32.43
269.768	34.73
270.236	34.78
270.705	42.93
271.174	35.43
271.642	37.48
272.111	35.03
272.579	33.63
273.048	36.73
273.516	36.98
273.985	36.68
274.453	38.93
274.922	30.73
275.39	31.63
275.858	40.58
276.327	37.63
276.795	34.83
277.263	41.08
277.731	41.78
278.2	41.83
278.668	44.18
279.136	46.03
279.604	46.73
280.072	38.53
280.54	42.38
281.008	48.98
281.477	48.43
281.945	43.33
282.413	46.53
282.881	45.98
283.348	50.83
283.816	50.33
284.284	50.53
284.752	53.33
285.22	49.33
285.688	50.78
286.156	49.38
286.623	50.08
287.091	47.88
287.559	53.53
288.026	53.68
288.494	52.83
288.962	58.03
289.429	52.68
289.897	52.73
290.364	53.93
290.832	57.33
291.3	56.13
291.767	54.48
292.234	59.98
292.702	58.98
293.169	60.63
293.637	61.28
294.104	66.03
294.571	59.83
295.039	67.73
295.506	56.43
295.973	62.68
296.44	62.43
296.908	63.38
297.375	67.73
297.842	66.73
298.309	64.23
298.776	67.13
299.243	65.88
299.71	64.68
300.177	66.43
300.644	69.93
301.111	74.28
301.578	73.98
302.045	69.88
302.512	68.68
302.979	75.63
303.446	77.53
303.913	77.33
304.379	80.33
304.846	81.23
305.313	86.68
305.78	85.53
306.246	83.08
306.713	86.43
307.18	85.68
307.646	84.88
308.113	84.58
308.579	89.58
309.046	93.13
309.512	90.03
309.979	96.93
310.445	90.93
310.912	94.33
311.378	103.43
311.845	94.33
312.311	92.93
312.777	94.18
313.244	101.48
313.71	101.38
314.176	107.23
314.642	101.48
315.109	105.63
315.575	98.83
316.041	101.13
316.507	100.73
316.973	113.28
317.439	109.18
317.905	108.68
318.371	106.08
318.837	110.28
319.303	114.78
319.769	105.03
320.235	113.53
320.701	111.03
321.167	112.53
321.633	115.98
322.099	115.88
322.564	120.68
323.03	119.53
323.496	116.38
323.962	122.63
324.427	127.03
324.893	120.83
325.359	125.38
325.824	128.18
326.29	132.58
326.755	127.33
327.221	125.93
327.686	135.93
328.152	132.03
328.617	139.88
329.083	139.03
329.548	138.88
330.014	137.88
330.479	141.18
330.944	142.73
331.41	144.43
331.875	140.98
332.34	138.73
332.805	144.78
333.271	144.83
333.736	143.88
334.201	146.03
334.666	154.73
335.131	155.08
335.596	162.33
336.061	151.88
336.526	147.63
336.991	147.98
337.456	147.08
337.921	144.18
338.386	147.48
338.851	147.68
339.316	155.03
339.781	151.73
340.246	147.98
340.711	153.53
341.175	152.98
341.64	158.28
342.105	165.58
342.569	172.83
343.034	167.08
343.499	168.63
343.963	177.03
344.428	175.88
344.893	176.63
345.357	185.63
345.822	187.08
346.286	183.98
346.751	186.38
347.215	186.08
347.679	196.88
348.144	205.28
348.608	208.28
349.073	206.02
349.537	214.73
350.001	212.58
350.465	215.27
350.93	210.83
351.394	219.58
351.858	215.83
352.322	221.58
352.786	218.83
353.25	223.18
353.715	224.73
354.179	244.53
354.643	246.18
355.107	245.58
355.571	240.33
356.035	243.48
356.498	240.12
356.962	234.08
357.426	226.98
357.89	231.48
358.354	231.88
358.818	228.43
359.281	237.68
359.745	232.08
360.209	233.13
360.673	232.48
361.136	232.03
361.6	243.33
362.064	243.13
362.527	250.88
362.991	251.63
363.454	249.68
363.918	251.78
364.381	255.48
364.845	253.13
365.308	248.93
365.772	258.98
366.235	258.68
366.698	249.03
367.162	253.48
367.625	256.93
368.088	264.38
368.552	261.48
369.015	259.88
369.478	263.53
369.941	264.83
370.404	269.28
370.867	267.27
371.331	264.08
371.794	275.63
372.257	274.93
372.72	275.08
373.183	281.98
373.646	281.58
374.109	278.78
374.572	283.58
375.035	288.38
375.497	286.88
375.96	296.88
376.423	301.28
376.886	301.13
377.349	300.73
377.811	297.38
378.274	308.73
378.737	298.53
379.199	306.13
379.662	306.38
380.125	310.03
380.587	314.78
381.05	311.73
381.512	321.28
381.975	330.68
382.437	343.18
382.9	333.53
383.362	333.43
383.825	345.98
384.287	341.93
384.75	349.63
385.212	342.23
385.674	351.88
386.136	355.73
386.599	350.08
387.061	347.43
387.523	350.73
387.985	351.18
388.447	361.73
388.91	355.78
389.372	360.38
389.834	358.73
390.296	354.43
390.758	363.18
391.22	353.98
391.682	351.02
392.144	352.13
392.606	357.77
393.068	372.18
393.529	394.88
393.991	397.08
394.453	385.03
394.915	370.43
395.377	357.13
395.838	365.63
396.3	362.53
396.762	371.88
397.224	369.68
397.685	368.33
398.147	381.98
398.608	382.08
399.07	385.38
399.531	387.08
399.993	398.93
400.454	396.08
400.916	395.18
401.377	400.53
401.839	403.03
402.3	406.08
402.762	434.78
403.223	463.38
403.684	457.03
404.145	437.53
404.607	423.98
405.068	404.43
405.529	417.48
405.99	410.78
406.451	426.28
406.913	414.02
407.374	420.58
407.835	424.93
408.296	433.08
408.757	431.53
409.218	448.38
409.679	450.68
410.14	456.43
410.601	467.93
411.062	468.33
411.522	480.38
411.983	483.88
412.444	490.08
412.905	504.62
413.366	528.98
413.826	555.73
414.287	643.48
414.748	788.73
415.208	812.12
415.669	659.33
416.13	588.33
416.59	581.63
417.051	614.93
417.511	645.98
417.972	703.68
418.432	763.88
418.893	860.98
419.353	810.13
419.814	605.98
420.274	526.33
420.734	519.58
421.195	534.23
421.655	530.83
422.115	539.13
422.576	536.53
423.036	534.43
423.496	562.48
423.956	578.73
424.416	620.43
424.876	705.43
425.336	697.53
425.797	677.03
426.257	662.58
426.717	608.12
427.177	544.38
427.637	529.02
428.097	550.18
428.556	572.38
429.016	608.68
429.476	602.53
429.936	569.53
430.396	553.48
430.856	563.43
431.315	567.73
431.775	607.58
432.235	668.52
432.694	684.38
433.154	633.33
433.614	615.08
434.073	601.83
434.533	542.62
434.993	540.18
435.452	554.03
435.912	546.18
436.371	556.53
436.83	551.88
437.29	546.73
437.749	549.18
438.209	557.08
438.668	567.58
439.127	582.58
439.587	572.38
440.046	563.48
440.505	573.63
440.964	580.88
441.424	596.93
441.883	613.73
442.342	593.28
442.801	564.68
443.26	580.08
443.719	573.88
444.178	573.38
444.637	588.48
445.096	590.73
445.555	597.28
446.014	595.18
446.473	592.13
446.932	592.23
447.391	602.68
447.849	607.43
448.308	603.28
448.767	608.18
449.226	608.53
449.685	630.68
450.143	659.58
450.602	654.73
451.061	618.68
451.519	623.73
451.978	603.73
452.436	603.78
452.895	617.88
453.353	606.43
453.812	601.33
454.27	601.13
454.729	606.78
455.187	610.48
455.646	611.23
456.104	611.88
456.562	623.53
457.021	625.62
457.479	605.48
457.937	622.03
458.395	640.98
458.854	631.08
459.312	623.38
459.77	625.98
460.228	641.02
460.686	645.93
461.144	647.68
461.602	641.68
462.06	648.03
462.518	656.18
462.976	648.18
463.434	660.93
463.892	664.78
464.35	680.28
464.808	687.53
465.266	690.13
465.724	702.18
466.181	700.13
466.639	694.08
467.097	728.53
467.555	754.43
468.012	743.78
468.47	748.58
468.928	770.53
469.385	788.98
469.843	792.98
470.3	782.03
470.758	810.53
471.215	816.43
471.673	830.68
472.13	865.28
472.588	876.58
473.045	864.93
473.503	878.68
473.96	911.38
474.417	910.93
474.875	943.38
475.332	955.98
475.789	969.48
476.246	978.23
476.704	1007.28
477.161	1009.88
477.618	1012.33
478.075	1029.83
478.532	1066.62
478.989	1095.67
479.446	1130.22
479.903	1132.08
480.36	1152.28
480.817	1144.88
481.274	1155.13
481.731	1188.53
482.188	1222.08
482.645	1234.58
483.102	1251.78
483.558	1290.18
484.015	1318.28
484.472	1310.37
484.929	1328.58
485.385	1328.12
485.842	1323.88
486.299	1341.17
486.755	1327.17
487.212	1318.63
487.668	1272.88
488.125	1272.03
488.582	1255.23
489.038	1264.58
489.494	1277.88
489.951	1267.28
490.407	1275.98
490.864	1282.23
491.32	1279.53
491.776	1287.03
492.233	1308.53
492.689	1295.83
493.145	1281.63
493.602	1279.03
494.058	1299.47
494.514	1311.42
494.97	1315.58
495.426	1335.23
495.882	1343.37
496.338	1340.63
496.794	1353.42
497.251	1345.72
497.707	1366.98
498.163	1371.23
498.618	1383.22
499.074	1373.17
499.53	1382.53
499.986	1404.47
500.442	1385.68
500.898	1378.62
501.354	1397.93
501.809	1397.18
502.265	1392.42
502.721	1407.12
503.177	1410.92
503.632	1423.53
504.088	1430.42
504.543	1443.03
504.999	1454.47
505.455	1449.33
505.91	1443.62
506.366	1442.08
506.821	1442.53
507.277	1435.72
507.732	1452.17
508.187	1446.13
508.643	1463.28
509.098	1457.48
509.553	1465.08
510.009	1491.17
510.464	1522.22
510.919	1529.52
511.375	1544.58
511.83	1563.62
512.285	1582.73
512.74	1632.38
513.195	1638.82
513.65	1675.92
514.105	1701.67
514.56	1704.08
515.015	1748.22
515.47	1745.27
515.925	1723.97
516.38	1725.97
516.835	1730.18
517.29	1722.68
517.745	1729.12
518.2	1693.67
518.655	1657.48
519.109	1635.78
519.564	1600.07
520.019	1595.38
520.474	1575.97
520.928	1576.08
521.383	1554.03
521.838	1558.42
522.292	1540.47
522.747	1534.77
523.201	1517.88
523.656	1500.12
524.11	1503.58
524.565	1493.33
525.019	1503.52
525.474	1492.08
525.928	1482.47
526.382	1472.22
526.837	1482.17
527.291	1481.17
527.745	1465.48
528.2	1476.48
528.654	1449.73
529.108	1456.03
529.562	1455.58
530.016	1448.32
530.47	1462.88
530.925	1450.07
531.379	1452.47
531.833	1459.22
532.287	1456.87
532.741	1447.08
533.195	1451.12
533.649	1447.97
534.103	1454.63
534.556	1443.73
535.01	1451.53
535.464	1443.43
535.918	1442.57
536.372	1459.53
536.826	1452.48
537.279	1442.57
537.733	1448.72
538.187	1458.87
538.64	1453.12
539.094	1468.93
539.548	1484.08
540.001	1488.48
540.455	1490.22
540.908	1502.63
541.362	1518.58
541.815	1522.97
542.269	1557.97
542.722	1552.52
543.175	1569.62
543.629	1594.72
544.082	1593.38
544.536	1615.88
544.989	1611.52
545.442	1618.48
545.895	1626.28
546.349	1625.23
546.802	1637.53
547.255	1634.12
547.708	1650.38
548.161	1660.52
548.614	1667.98
549.067	1677.32
549.52	1666.02
549.973	1643.43
550.426	1625.07
550.879	1618.27
551.332	1619.42
551.785	1629.17
552.238	1643.82
552.691	1639.33
553.144	1665.13
553.596	1690.53
554.049	1718.22
554.502	1762.48
554.955	1791.22
555.407	1812.03
555.86	1795.12
556.313	1772.73
556.765	1746.97
557.218	1726.12
557.67	1716.12
558.123	1695.88
558.576	1697.18
559.028	1698.58
559.48	1724.22
559.933	1716.57
560.385	1653.77
560.838	1586.28
561.29	1530.88
561.742	1526.12
562.195	1495.33
562.647	1473.67
563.099	1472.38
563.551	1467.63
564.004	1493.98
564.456	1471.92
564.908	1434.83
565.36	1400.03
565.812	1370.82
566.264	1359.53
566.716	1338.33
567.168	1314.43
567.62	1311.78
568.072	1308.62
568.524	1292.52
568.976	1297.17
569.428	1277.57
569.88	1275.98
570.332	1284.57
570.784	1283.43
571.235	1281.72
571.687	1294.62
572.139	1289.48
572.59	1309.83
573.042	1318.23
573.494	1316.22
573.945	1281.88
574.397	1261.22
574.849	1251.58
575.3	1265.02
575.752	1240.62
576.203	1230.78
576.655	1238.02
577.106	1220.32
577.557	1208.38
578.009	1198.97
578.46	1201.83
578.912	1190.38
579.363	1209.02
579.814	1204.12
580.265	1197.53
580.717	1205.52
581.168	1205.47
581.619	1205.32
582.07	1220.47
582.521	1210.12
582.972	1207.78
583.423	1206.92
583.875	1214.27
584.326	1221.22
584.777	1248.67
585.227	1270.72
585.678	1281.47
586.129	1291.57
586.58	1310.88
587.031	1337.23
587.482	1371.62
587.933	1394.02
588.384	1400.17
588.834	1380.38
589.285	1368.68
589.736	1366.08
590.186	1386.07
590.637	1361.12
591.088	1318.83
591.538	1292.87
591.989	1265.12
592.439	1263.57
592.89	1240.22
593.34	1244.97
593.791	1238.87
594.241	1220.88
594.692	1205.93
595.142	1214.83
595.593	1216.92
596.043	1218.77
596.493	1236.53
596.943	1228.78
597.394	1261.73
597.844	1280.82
598.294	1309.33
598.744	1366.48
599.195	1425.88
599.645	1522.42
600.095	1603.27
600.545	1692.58
600.995	1774.93
601.445	1850.27
601.895	1954.48
602.345	2016.62
602.795	1993.62
603.245	1898.03
603.695	1772.38
604.145	1676.02
604.594	1572.98
605.044	1477.48
605.494	1375.18
605.944	1298.57
606.393	1253.38
606.843	1249.53
607.293	1248.83
607.743	1235.43
608.192	1242.58
608.642	1256.97
609.091	1252.17
609.541	1258.12
609.99	1253.67
610.44	1218.62
610.889	1200.68
611.339	1189.98
611.788	1170.42
612.238	1175.58
612.687	1178.58
613.136	1194.38
613.586	1204.37
614.035	1200.38
614.484	1208.02
614.933	1212.83
615.383	1176.03
615.832	1152.97
616.281	1138.78
616.73	1116.83
617.179	1084.43
617.628	1062.72
618.077	1040.38
618.526	1034.88
618.975	1023.73
619.424	1002.63
619.873	1010.03
620.322	997.83
620.771	1006.93
621.22	972.48
621.669	954.13
622.118	948.72
622.567	941.53
623.015	912.98
623.464	919.98
623.913	903.33
624.361	903.68
624.81	901.88
625.259	906.73
625.707	897.23
626.156	905.88
626.604	920.13
627.053	915.12
627.501	924.73
627.95	931.38
628.398	946.38
628.847	924.93
629.295	920.28
629.744	920.33
630.192	906.58
630.64	886.23
631.089	866.48
631.537	839.48
631.985	829.23
632.433	830.73
632.881	815.63
633.33	822.03
633.778	819.13
634.226	837.63
634.674	838.88
635.122	845.83
635.57	857.73
636.018	866.12
636.466	862.68
636.914	855.77
637.362	875.18
637.81	891.28
638.258	920.18
638.705	923.78
639.153	958.18
639.601	964.68
640.049	986.33
640.497	1019.68
640.944	1051.28
641.392	983.68
641.84	905.58
642.287	849.38
642.735	824.58
643.182	805.53
643.63	794.43
644.078	789.73
644.525	783.13
644.973	797.43
645.42	802.48
645.867	796.38
646.315	796.03
646.762	814.48
647.21	801.23
647.657	808.68
648.104	800.33
648.551	762.68
648.999	760.68
649.446	759.73
649.893	751.13
650.34	762.18
650.787	782.53
651.234	809.78
651.682	878.78
652.129	953.98
652.576	1094.18
653.023	1256.72
653.47	1358.48
653.917	1442.32
654.363	1463.53
654.81	1550.07
655.257	1591.83
655.704	1248.58
656.151	970.08
656.598	850.12
657.044	784.83
657.491	766.58
657.938	743.68
658.385	722.23
658.831	728.88
659.278	731.98
659.724	718.03
660.171	712.23
660.618	689.18
661.064	678.58
661.511	678.62
661.957	683.28
662.404	688.18
662.85	696.68
663.296	705.58
663.743	697.88
664.189	705.63
664.635	706.93
665.082	711.43
665.528	707.43
665.974	684.18
666.42	679.38
666.867	680.23
667.313	640.48
667.759	642.98
668.205	645.48
668.651	646.73
669.097	650.28
669.543	647.18
669.989	663.78
670.435	662.33
670.881	665.23
671.327	703.38
671.773	754.18
672.219	819.13
672.665	884.48
673.11	928.18
673.556	952.48
674.002	988.33
674.448	1010.77
674.893	842.02
675.339	716.33
675.785	661.53
676.23	622.28
676.676	609.03
677.122	586.78
677.567	570.73
678.013	546.38
678.458	547.18
678.904	544.23
679.349	534.88
679.794	541.23
680.24	539.78
680.685	531.03
681.131	535.98
681.576	531.78
682.021	533.23
682.466	548.68
682.912	542.58
683.357	581.33
683.802	632.83
684.247	697.77
684.692	759.08
685.137	793.52
685.583	817.88
686.028	869.18
686.473	821.23
686.918	700.13
687.363	631.53
687.807	597.83
688.252	565.38
688.697	537.43
689.142	525.83
689.587	528.53
690.032	533.98
690.477	553.63
690.921	586.33
691.366	626.18
691.811	643.48
692.255	710.83
692.7	862.93
693.145	1248.88
693.589	1918.43
694.034	2348.43
694.478	2567.12
694.923	2408.38
695.367	3527.48
695.812	2072.82
696.256	828.58
696.701	589.98
697.145	543.38
697.59	516.43
698.034	507.48
698.478	501.18
698.922	510.18
699.367	524.08
699.811	549.28
700.255	606.58
700.699	661.68
701.143	735.58
701.588	774.23
702.032	822.48
702.476	845.68
702.92	879.53
703.364	1131.88
703.808	1760.63
704.252	2249.68
704.696	2449.68
705.14	2359.43
705.584	3346.68
706.027	1783.53
706.471	871.28
706.915	626.58
707.359	552.13
707.803	514.63
708.246	489.73
708.69	491.18
709.134	483.03
709.577	477.48
710.021	488.93
710.465	488.23
710.908	473.73
711.352	495.03
711.795	556.48
712.239	602.38
712.682	623.83
713.126	611.23
713.569	699.93
714.012	559.38
714.456	477.13
714.899	454.38
715.342	429.63
715.786	411.93
716.229	402.62
716.672	391.98
717.115	384.03
717.558	395.23
718.002	407.13
718.445	425.63
718.888	447.33
719.331	466.58
719.774	481.33
720.217	469.77
720.66	432.98
721.103	406.33
721.546	382.53
721.989	371.88
722.432	368.28
722.874	369.62
723.317	369.83
723.76	403.78
724.203	503.13
724.645	687.83
725.088	829.73
725.531	828.08
725.974	934.83
726.416	819.23
726.859	475.27
727.301	386.43
727.744	370.38
728.187	369.08
728.629	378.08
729.071	402.08
729.514	421.33
729.956	444.27
730.399	453.63
730.841	453.68
731.283	430.08
731.726	420.48
732.168	428.23
732.61	451.78
733.053	492.03
733.495	542.38
733.937	611.93
734.379	729.18
734.821	921.28
735.263	1457.07
735.705	2639.82
736.148	3973.12
736.59	4134.58
737.032	4622.12
737.474	3778.32
737.916	1382.23
738.357	702.28
738.799	530.53
739.241	490.48
739.683	486.68
740.125	495.33
740.567	507.68
741.008	532.63
741.45	563.63
741.892	581.68
742.334	595.48
742.775	598.13
743.217	565.98
743.658	477.58
744.1	474.23
744.542	544.33
744.983	570.08
745.425	602.98
745.866	591.08
746.307	492.27
746.749	528.88
747.19	779.48
747.632	1524.73
748.073	2894.73
748.514	4119.43
748.956	5649.12
749.397	6685.97
749.838	4584.88
750.279	4495.68
750.72	2239.93
751.162	912.68
