Data from MSPlasma+Separation6_Subt14_10-13-07-444.txt Node
Date: Fri Jul 21 10:13:07 EDT 2017
User: Ender
Spectrometer: HR+D1039
Trigger mode: 0
Integration Time (sec): 6.430000E-3
Scans to average: 20
Electric dark correction enabled: true
Nonlinearity correction enabled: false
Boxcar width: 0
XAxis mode: Wavelengths
Number of Pixels in Spectrum: 2048
>>>>>Begin Spectral Data<<<<<
187.836	1.87
188.309	1.87
188.782	1.87
189.255	2.52
189.728	2.07
190.201	-3.53
190.674	-1.63
191.147	-2.13
191.619	0.32
192.092	-2.53
192.565	-2.38
193.038	5.82
193.511	4.92
193.984	0.27
194.456	-1.18
194.929	-0.48
195.402	-4.28
195.874	0.37
196.347	3.72
196.82	2.42
197.292	-3.83
197.765	-1.03
198.237	-1.53
198.71	-2.08
199.182	1.42
199.655	3.12
200.127	3.02
200.6	-0.98
201.072	3.72
201.544	-3.73
202.017	1.82
202.489	3.82
202.961	-3.33
203.433	-4.48
203.906	1.67
204.378	-0.58
204.85	-1.73
205.322	-2.08
205.794	2.77
206.266	-3.73
206.739	0.07
207.211	-0.98
207.683	-2.63
208.155	-1.43
208.627	-1.38
209.099	1.82
209.57	-0.13
210.042	3.97
210.514	-2.73
210.986	1.02
211.458	0.72
211.93	1.27
212.402	-0.63
212.873	-2.63
213.345	-1.38
213.817	4.22
214.288	-4.48
214.76	2.67
215.232	-3.08
215.703	-0.98
216.175	3.22
216.646	2.62
217.118	-0.03
217.589	-4.23
218.061	1.82
218.532	-1.83
219.004	4.32
219.475	2.02
219.946	1.07
220.418	7.07
220.889	1.52
221.36	7.77
221.832	6.52
222.303	0.27
222.774	-0.53
223.245	-0.88
223.717	-0.88
224.188	0.02
224.659	1.87
225.13	1.07
225.601	0.87
226.072	0.67
226.543	4.47
227.014	1.67
227.485	1.92
227.956	4.12
228.427	7.92
228.898	4.77
229.369	3.47
229.839	-0.58
230.31	7.37
230.781	2.52
231.252	5.12
231.722	7.37
232.193	6.42
232.664	4.92
233.135	3.82
233.605	5.82
234.076	9.17
234.546	6.32
235.017	9.97
235.487	6.92
235.958	4.47
236.428	6.47
236.899	1.77
237.369	10.57
237.84	6.67
238.31	13.27
238.78	7.22
239.251	5.72
239.721	5.72
240.191	10.87
240.662	10.72
241.132	6.72
241.602	10.87
242.072	9.87
242.542	6.52
243.013	9.82
243.483	12.12
243.953	10.17
244.423	12.12
244.893	10.37
245.363	14.22
245.833	13.77
246.303	10.22
246.773	10.92
247.243	10.02
247.712	15.92
248.182	11.07
248.652	18.82
249.122	13.72
249.592	16.77
250.061	11.57
250.531	13.72
251.001	15.87
251.471	17.12
251.94	17.67
252.41	16.07
252.879	17.32
253.349	22.47
253.818	14.77
254.288	22.57
254.757	17.72
255.227	19.47
255.696	22.27
256.166	27.07
256.635	26.32
257.105	19.97
257.574	21.27
258.043	23.77
258.513	23.37
258.982	17.97
259.451	26.82
259.92	18.02
260.389	22.22
260.859	25.72
261.328	25.97
261.797	19.92
262.266	27.42
262.735	27.92
263.204	24.32
263.673	28.12
264.142	23.52
264.611	29.17
265.08	24.32
265.549	24.72
266.018	27.82
266.487	28.17
266.955	25.37
267.424	30.47
267.893	33.02
268.362	31.47
268.83	26.67
269.299	26.57
269.768	27.17
270.236	31.47
270.705	34.62
271.174	28.52
271.642	31.02
272.111	32.12
272.579	30.82
273.048	32.32
273.516	37.37
273.985	34.67
274.453	34.32
274.922	37.07
275.39	29.92
275.858	35.12
276.327	38.22
276.795	35.62
277.263	36.47
277.731	31.27
278.2	37.22
278.668	39.27
279.136	38.97
279.604	38.57
280.072	38.02
280.54	39.02
281.008	48.27
281.477	38.87
281.945	35.37
282.413	42.22
282.881	41.32
283.348	43.37
283.816	46.22
284.284	44.17
284.752	42.57
285.22	43.87
285.688	46.07
286.156	47.52
286.623	47.97
287.091	44.57
287.559	49.97
288.026	53.62
288.494	50.37
288.962	51.87
289.429	50.12
289.897	47.97
290.364	42.57
290.832	50.57
291.3	52.12
291.767	50.82
292.234	54.77
292.702	47.67
293.169	51.97
293.637	58.57
294.104	55.82
294.571	51.12
295.039	58.27
295.506	45.72
295.973	56.97
296.44	55.92
296.908	62.37
297.375	60.57
297.842	63.87
298.309	60.07
298.776	63.17
299.243	60.87
299.71	63.07
300.177	60.32
300.644	61.52
301.111	59.17
301.578	59.22
302.045	58.77
302.512	61.12
302.979	63.77
303.446	67.87
303.913	70.42
304.379	72.87
304.846	73.27
305.313	73.22
305.78	78.72
306.246	72.97
306.713	78.32
307.18	73.92
307.646	77.07
308.113	77.22
308.579	81.52
309.046	85.22
309.512	81.97
309.979	83.92
310.445	78.47
310.912	80.97
311.378	88.12
311.845	86.52
312.311	86.62
312.777	83.97
313.244	90.57
313.71	91.37
314.176	93.17
314.642	92.17
315.109	91.82
315.575	90.32
316.041	91.87
316.507	90.87
316.973	91.62
317.439	97.92
317.905	99.12
318.371	94.57
318.837	96.42
319.303	99.17
319.769	99.62
320.235	103.02
320.701	104.97
321.167	97.87
321.633	104.42
322.099	100.27
322.564	102.52
323.03	104.87
323.496	101.82
323.962	106.42
324.427	113.52
324.893	106.22
325.359	112.02
325.824	113.87
326.29	113.27
326.755	110.72
327.221	112.92
327.686	119.37
328.152	116.67
328.617	121.82
329.083	121.57
329.548	124.62
330.014	124.27
330.479	122.97
330.944	120.62
331.41	129.87
331.875	124.82
332.34	125.57
332.805	127.22
333.271	127.17
333.736	129.87
334.201	130.12
334.666	138.12
335.131	131.92
335.596	134.92
336.061	136.07
336.526	132.32
336.991	133.27
337.456	129.42
337.921	126.37
338.386	128.07
338.851	125.32
339.316	134.87
339.781	126.67
340.246	133.37
340.711	133.52
341.175	137.22
341.64	139.87
342.105	137.67
342.569	150.37
343.034	141.22
343.499	146.27
343.963	151.02
344.428	152.82
344.893	154.92
345.357	158.52
345.822	157.17
346.286	157.82
346.751	161.47
347.215	168.42
347.679	173.57
348.144	179.77
348.608	183.52
349.073	186.07
349.537	188.07
350.001	186.82
350.465	192.77
350.93	187.67
351.394	191.27
351.858	185.57
352.322	194.87
352.786	193.97
353.25	193.47
353.715	194.12
354.179	207.77
354.643	215.12
355.107	208.42
355.571	212.27
356.035	207.72
356.498	209.32
356.962	204.22
357.426	198.82
357.89	202.62
358.354	196.97
358.818	193.62
359.281	198.02
359.745	203.57
360.209	200.92
360.673	199.07
361.136	202.22
361.6	203.82
362.064	209.62
362.527	210.02
362.991	213.92
363.454	210.17
363.918	213.67
364.381	218.17
364.845	217.67
365.308	217.02
365.772	223.97
366.235	217.77
366.698	218.27
367.162	217.52
367.625	216.82
368.088	227.52
368.552	224.27
369.015	219.92
369.478	230.87
369.941	224.72
370.404	232.47
370.867	229.67
371.331	232.22
371.794	235.87
372.257	232.32
372.72	238.12
373.183	237.57
373.646	240.97
374.109	237.72
374.572	242.37
375.035	241.97
375.497	241.42
375.96	248.67
376.423	249.17
376.886	255.62
377.349	257.87
377.811	257.12
378.274	265.87
378.737	257.42
379.199	257.82
379.662	258.82
380.125	263.57
380.587	272.37
381.05	270.57
381.512	273.47
381.975	287.02
382.437	292.07
382.9	288.52
383.362	285.47
383.825	288.87
384.287	288.87
384.75	290.62
385.212	289.22
385.674	297.97
386.136	293.27
386.599	296.12
387.061	291.27
387.523	301.32
387.985	299.82
388.447	308.27
388.91	305.37
389.372	306.97
389.834	312.92
390.296	299.97
390.758	306.12
391.22	303.07
391.682	304.92
392.144	304.62
392.606	303.07
393.068	316.67
393.529	338.07
393.991	342.37
394.453	322.67
394.915	317.42
395.377	306.62
395.838	313.92
396.3	315.87
396.762	321.42
397.224	314.92
397.685	310.92
398.147	321.42
398.608	324.07
399.07	331.07
399.531	328.92
399.993	340.52
400.454	348.52
400.916	337.92
401.377	343.67
401.839	352.47
402.3	351.57
402.762	359.42
403.223	394.82
403.684	396.82
404.145	369.92
404.607	360.47
405.068	351.77
405.529	351.77
405.99	357.22
406.451	364.87
406.913	352.17
407.374	357.57
407.835	361.07
408.296	368.17
408.757	365.22
409.218	377.97
409.679	383.62
410.14	391.07
410.601	406.87
411.062	410.72
411.522	415.77
411.983	414.72
412.444	427.62
412.905	438.27
413.366	455.72
413.826	477.22
414.287	554.77
414.748	676.62
415.208	690.97
415.669	565.57
416.13	506.02
416.59	499.87
417.051	517.72
417.511	544.42
417.972	596.32
418.432	644.42
418.893	722.52
419.353	689.02
419.814	510.77
420.274	452.37
420.734	449.32
421.195	462.92
421.655	459.42
422.115	460.97
422.576	455.77
423.036	463.37
423.496	477.47
423.956	493.07
424.416	532.27
424.876	604.27
425.336	603.07
425.797	585.62
426.257	565.72
426.717	513.52
427.177	468.37
427.637	464.67
428.097	473.87
428.556	488.87
429.016	523.77
429.476	515.47
429.936	486.77
430.396	473.67
430.856	486.92
431.315	496.57
431.775	531.02
432.235	582.02
432.694	587.72
433.154	537.67
433.614	530.52
434.073	509.02
434.533	470.92
434.993	461.77
435.452	476.17
435.912	469.02
436.371	483.02
436.83	481.67
437.29	475.27
437.749	475.27
438.209	471.37
438.668	491.72
439.127	497.77
439.587	500.92
440.046	489.77
440.505	508.62
440.964	511.72
441.424	523.42
441.883	541.42
442.342	516.92
442.801	497.37
443.26	505.37
443.719	503.02
444.178	500.07
444.637	510.22
445.096	515.97
445.555	521.42
446.014	521.47
446.473	513.72
446.932	513.67
447.391	524.52
447.849	526.77
448.308	527.22
448.767	534.32
449.226	540.52
449.685	551.72
450.143	583.62
450.602	571.02
451.061	547.52
451.519	538.82
451.978	526.72
452.436	529.97
452.895	545.92
453.353	533.57
453.812	529.87
454.27	529.02
454.729	535.12
455.187	533.77
455.646	533.37
456.104	538.62
456.562	543.57
457.021	546.32
457.479	528.07
457.937	552.52
458.395	566.62
458.854	557.72
459.312	549.42
459.77	554.27
460.228	556.87
460.686	571.42
461.144	566.67
461.602	564.92
462.06	561.27
462.518	572.32
462.976	576.87
463.434	581.72
463.892	585.82
464.35	593.12
464.808	602.22
465.266	609.22
465.724	624.12
466.181	618.12
466.639	616.37
467.097	639.37
467.555	664.72
468.012	658.92
468.47	666.32
468.928	689.72
469.385	705.57
469.843	710.42
470.3	695.62
470.758	720.52
471.215	725.02
471.673	736.47
472.13	762.32
472.588	770.27
473.045	763.87
473.503	773.27
473.96	800.57
474.417	804.67
474.875	834.77
475.332	860.87
475.789	863.32
476.246	879.02
476.704	898.17
477.161	903.82
477.618	904.72
478.075	919.27
478.532	948.62
478.989	973.37
479.446	1017.12
479.903	1002.62
480.36	1017.47
480.817	1031.52
481.274	1044.17
481.731	1066.57
482.188	1097.82
482.645	1118.12
483.102	1118.22
483.558	1157.77
484.015	1177.82
484.472	1171.32
484.929	1181.67
485.385	1181.02
485.842	1181.62
486.299	1195.57
486.755	1195.47
487.212	1172.17
487.668	1138.97
488.125	1140.82
488.582	1117.12
489.038	1126.47
489.494	1147.92
489.951	1146.02
490.407	1150.52
490.864	1148.42
491.32	1148.07
491.776	1157.12
492.233	1170.27
492.689	1170.22
493.145	1157.22
493.602	1146.12
494.058	1172.07
494.514	1177.32
494.97	1181.67
495.426	1209.67
495.882	1212.42
496.338	1212.22
496.794	1221.57
497.251	1222.27
497.707	1245.17
498.163	1245.22
498.618	1249.07
499.074	1244.32
499.53	1259.07
499.986	1268.42
500.442	1255.42
500.898	1250.62
501.354	1268.57
501.809	1262.47
502.265	1266.42
502.721	1277.67
503.177	1278.77
503.632	1290.72
504.088	1291.02
504.543	1319.62
504.999	1321.67
505.455	1304.02
505.91	1306.52
506.366	1309.72
506.821	1316.07
507.277	1301.32
507.732	1306.37
508.187	1308.37
508.643	1314.97
509.098	1318.92
509.553	1339.97
510.009	1351.12
510.464	1382.02
510.919	1394.77
511.375	1407.37
511.83	1421.47
512.285	1446.62
512.74	1474.62
513.195	1498.17
513.65	1527.32
514.105	1554.82
514.56	1560.22
515.015	1587.47
515.47	1587.87
515.925	1577.72
516.38	1564.42
516.835	1571.37
517.29	1568.42
517.745	1581.27
518.2	1543.37
518.655	1506.62
519.109	1492.72
519.564	1467.27
520.019	1450.77
520.474	1452.52
520.928	1432.62
521.383	1425.52
521.838	1424.27
522.292	1408.67
522.747	1395.47
523.201	1400.02
523.656	1368.97
524.11	1369.02
524.565	1364.27
525.019	1369.47
525.474	1369.37
525.928	1357.17
526.382	1356.07
526.837	1350.07
527.291	1366.62
527.745	1351.22
528.2	1350.92
528.654	1331.32
529.108	1334.67
529.562	1342.62
530.016	1344.47
530.47	1335.67
530.925	1333.22
531.379	1334.87
531.833	1351.42
532.287	1348.37
532.741	1332.97
533.195	1345.07
533.649	1336.12
534.103	1345.07
534.556	1334.32
535.01	1345.57
535.464	1333.42
535.918	1336.62
536.372	1347.32
536.826	1350.12
537.279	1333.22
537.733	1330.87
538.187	1339.12
538.64	1336.52
539.094	1352.62
539.548	1374.67
540.001	1363.27
540.455	1372.42
540.908	1387.42
541.362	1396.27
541.815	1407.12
542.269	1444.57
542.722	1432.22
543.175	1447.02
543.629	1457.62
544.082	1471.17
544.536	1486.87
544.989	1478.77
545.442	1490.92
545.895	1501.72
546.349	1500.02
546.802	1499.87
547.255	1503.92
547.708	1522.37
548.161	1539.07
548.614	1540.97
549.067	1548.32
549.52	1527.12
549.973	1517.92
550.426	1505.07
550.879	1494.17
551.332	1488.57
551.785	1507.62
552.238	1526.22
552.691	1513.12
553.144	1542.32
553.596	1573.32
554.049	1586.77
554.502	1641.47
554.955	1668.32
555.407	1688.32
555.86	1664.67
556.313	1640.87
556.765	1622.47
557.218	1608.67
557.67	1592.22
558.123	1576.62
558.576	1572.37
559.028	1565.37
559.48	1596.07
559.933	1587.27
560.385	1527.87
560.838	1476.07
561.29	1419.47
561.742	1418.07
562.195	1378.57
562.647	1374.27
563.099	1357.12
563.551	1361.87
564.004	1386.07
564.456	1362.47
564.908	1326.42
565.36	1295.77
565.812	1280.77
566.264	1258.27
566.716	1248.27
567.168	1220.22
567.62	1221.92
568.072	1224.92
568.524	1203.77
568.976	1198.57
569.428	1190.37
569.88	1191.97
570.332	1197.37
570.784	1196.37
571.235	1198.62
571.687	1204.42
572.139	1209.07
572.59	1217.87
573.042	1231.72
573.494	1224.62
573.945	1203.97
574.397	1182.97
574.849	1175.72
575.3	1181.17
575.752	1163.97
576.203	1153.27
576.655	1156.07
577.106	1137.02
577.557	1129.87
578.009	1128.32
578.46	1131.42
578.912	1105.92
579.363	1120.47
579.814	1122.47
580.265	1129.32
580.717	1128.22
581.168	1117.92
581.619	1129.57
582.07	1140.07
582.521	1127.27
582.972	1127.32
583.423	1131.07
583.875	1133.07
584.326	1146.52
584.777	1163.47
585.227	1189.82
585.678	1195.67
586.129	1204.72
586.58	1228.32
587.031	1245.87
587.482	1287.27
587.933	1304.52
588.384	1291.32
588.834	1284.67
589.285	1276.32
589.736	1280.22
590.186	1283.37
590.637	1274.27
591.088	1234.92
591.538	1214.32
591.989	1200.97
592.439	1176.72
592.89	1165.52
593.34	1164.37
593.791	1160.57
594.241	1137.57
594.692	1139.32
595.142	1138.02
595.593	1140.02
596.043	1148.67
596.493	1159.47
596.943	1157.57
597.394	1190.82
597.844	1209.42
598.294	1230.37
598.744	1277.87
599.195	1352.67
599.645	1437.42
600.095	1503.37
600.545	1579.52
600.995	1663.47
601.445	1717.67
601.895	1826.57
602.345	1892.92
602.795	1860.47
603.245	1771.07
603.695	1654.27
604.145	1552.57
604.594	1482.27
605.044	1391.32
605.494	1290.22
605.944	1233.12
606.393	1181.92
606.843	1165.07
607.293	1176.07
607.743	1166.82
608.192	1172.72
608.642	1176.92
609.091	1174.22
609.541	1176.62
609.99	1179.92
610.44	1145.67
610.889	1132.47
611.339	1115.37
611.788	1101.27
612.238	1104.37
612.687	1108.82
613.136	1116.77
613.586	1124.12
614.035	1125.67
614.484	1132.27
614.933	1133.42
615.383	1111.22
615.832	1083.57
616.281	1067.97
616.73	1050.02
617.179	1019.52
617.628	1001.52
618.077	982.12
618.526	971.37
618.975	966.72
619.424	949.42
619.873	953.32
620.322	936.32
620.771	942.72
621.22	923.62
621.669	903.72
622.118	893.07
622.567	886.97
623.015	861.67
623.464	865.02
623.913	846.02
624.361	857.97
624.81	852.32
625.259	851.57
625.707	845.17
626.156	854.32
626.604	866.77
627.053	873.42
627.501	866.52
627.95	877.72
628.398	886.62
628.847	873.62
629.295	871.47
629.744	868.82
630.192	851.02
630.64	830.47
631.089	810.47
631.537	781.37
631.985	783.52
632.433	776.22
632.881	775.72
633.33	779.37
633.778	772.22
634.226	782.12
634.674	783.07
635.122	790.12
635.57	803.72
636.018	819.57
636.466	809.07
636.914	808.32
637.362	834.67
637.81	839.47
638.258	870.42
638.705	881.17
639.153	908.47
639.601	914.42
640.049	930.97
640.497	957.97
640.944	980.32
641.392	929.52
641.84	856.22
642.287	804.22
642.735	771.52
643.182	757.82
643.63	749.82
644.078	750.82
644.525	745.27
644.973	751.22
645.42	762.17
645.867	752.37
646.315	759.52
646.762	763.42
647.21	763.97
647.657	771.62
648.104	754.17
648.551	723.57
648.999	723.97
649.446	719.62
649.893	714.92
650.34	722.07
650.787	738.42
651.234	762.97
651.682	828.47
652.129	903.02
652.576	1038.07
653.023	1193.17
653.47	1291.12
653.917	1334.07
654.363	1373.92
654.81	1438.72
655.257	1469.87
655.704	1179.77
656.151	916.42
656.598	799.02
657.044	738.82
657.491	725.67
657.938	713.87
658.385	692.92
658.831	689.77
659.278	687.42
659.724	683.27
660.171	670.17
660.618	658.62
661.064	637.62
661.511	641.87
661.957	652.07
662.404	647.92
662.85	665.42
663.296	663.82
663.743	671.67
664.189	671.62
664.635	670.92
665.082	673.57
665.528	668.07
665.974	651.62
666.42	640.87
666.867	642.22
667.313	614.87
667.759	610.82
668.205	602.77
668.651	608.87
669.097	619.32
669.543	616.17
669.989	628.22
670.435	622.57
670.881	635.52
671.327	664.27
671.773	715.62
672.219	771.27
672.665	839.37
673.11	881.52
673.556	888.92
674.002	930.47
674.448	948.52
674.893	795.57
675.339	684.72
675.785	626.02
676.23	596.72
676.676	568.12
677.122	553.22
677.567	540.72
678.013	519.07
678.458	517.97
678.904	518.22
679.349	504.82
679.794	511.17
680.24	511.22
680.685	506.82
681.131	512.17
681.576	508.12
682.021	513.77
682.466	519.77
682.912	523.37
683.357	548.02
683.802	606.22
684.247	664.22
684.692	712.17
685.137	751.42
685.583	767.72
686.028	818.72
686.473	772.27
686.918	655.42
687.363	594.57
687.807	560.52
688.252	529.07
688.697	513.97
689.142	498.62
689.587	494.62
690.032	510.32
690.477	534.67
690.921	558.22
691.366	589.92
691.811	615.42
692.255	670.17
692.7	819.37
693.145	1190.57
693.589	1828.97
694.034	2203.27
694.478	2391.02
694.923	2241.12
695.367	3255.97
695.812	1930.07
696.256	780.52
696.701	563.42
697.145	513.72
697.59	491.87
698.034	477.27
698.478	477.97
698.922	485.67
699.367	500.57
699.811	516.57
700.255	569.62
700.699	623.77
701.143	688.82
701.588	735.82
702.032	775.67
702.476	792.97
702.92	825.37
703.364	1079.77
703.808	1670.32
704.252	2110.97
704.696	2293.12
705.14	2206.02
705.584	3080.27
706.027	1670.77
706.471	804.77
706.915	589.07
707.359	516.82
707.803	486.32
708.246	466.67
708.69	468.67
709.134	458.17
709.577	456.27
710.021	460.87
710.465	457.57
710.908	457.92
711.352	473.32
711.795	522.22
712.239	564.87
712.682	586.67
713.126	579.37
713.569	652.42
714.012	527.82
714.456	446.67
714.899	426.27
715.342	405.42
715.786	391.22
716.229	382.77
716.672	369.47
717.115	374.67
717.558	373.17
718.002	388.22
718.445	406.52
718.888	429.52
719.331	438.72
719.774	458.02
720.217	441.52
720.66	416.22
721.103	388.57
721.546	366.52
721.989	353.22
722.432	350.82
722.874	346.77
723.317	354.62
723.76	383.17
724.203	478.12
724.645	651.12
725.088	791.17
725.531	773.92
725.974	872.72
726.416	774.42
726.859	460.92
727.301	369.82
727.744	348.52
728.187	355.77
728.629	359.47
729.071	379.57
729.514	399.62
729.956	413.97
730.399	435.12
730.841	430.82
731.283	416.82
731.726	398.77
732.168	402.57
732.61	431.57
733.053	463.77
733.495	518.47
733.937	585.97
734.379	683.77
734.821	875.32
735.263	1385.77
735.705	2490.77
736.148	3739.77
736.59	3859.62
737.032	4288.82
737.474	3505.97
737.916	1301.12
738.357	667.07
738.799	504.52
739.241	461.92
739.683	463.32
740.125	474.27
740.567	471.72
741.008	501.92
741.45	536.67
741.892	555.07
742.334	564.27
742.775	560.92
743.217	532.42
743.658	450.32
744.1	454.57
744.542	523.87
744.983	541.57
745.425	575.47
745.866	561.27
746.307	473.52
746.749	505.22
747.19	743.37
747.632	1453.62
748.073	2735.27
748.514	3862.07
748.956	5271.82
749.397	6212.87
749.838	4245.87
750.279	4170.42
750.72	2103.22
751.162	856.82
751.603	488.87
752.044	389.37
