Data from MSPlasma+Separation6_Subt14_10-13-05-294.txt Node
Date: Fri Jul 21 10:13:05 EDT 2017
User: Ender
Spectrometer: HR+D1039
Trigger mode: 0
Integration Time (sec): 6.430000E-3
Scans to average: 20
Electric dark correction enabled: true
Nonlinearity correction enabled: false
Boxcar width: 0
XAxis mode: Wavelengths
Number of Pixels in Spectrum: 2048
>>>>>Begin Spectral Data<<<<<
187.836	2.83
188.309	2.83
188.782	2.83
189.255	1.98
189.728	-1.17
190.201	-4.02
190.674	-0.07
191.147	-2.82
191.619	-1.22
192.092	1.93
192.565	1.33
193.038	2.38
193.511	4.38
193.984	-1.82
194.456	-3.02
194.929	-0.47
195.402	-3.57
195.874	3.28
196.347	7.83
196.82	2.93
197.292	-2.02
197.765	-2.07
198.237	-3.77
198.71	-3.32
199.182	2.68
199.655	3.98
200.127	-2.22
200.6	-2.47
201.072	-0.27
201.544	-5.02
202.017	3.03
202.489	3.08
202.961	-0.72
203.433	-6.97
203.906	-2.87
204.378	2.13
204.85	-0.82
205.322	-1.22
205.794	3.43
206.266	-2.97
206.739	3.23
207.211	-6.62
207.683	-0.82
208.155	3.13
208.627	-0.07
209.099	2.63
209.57	0.13
210.042	4.63
210.514	-0.22
210.986	1.43
211.458	-2.22
211.93	1.13
212.402	3.03
212.873	-3.37
213.345	-4.22
213.817	-2.12
214.288	-4.67
214.76	0.53
215.232	-0.12
215.703	0.18
216.175	2.08
216.646	1.98
217.118	0.78
217.589	-1.47
218.061	-1.02
218.532	-5.27
219.004	2.73
219.475	-1.27
219.946	3.13
220.418	5.33
220.889	0.78
221.36	2.08
221.832	4.63
222.303	3.18
222.774	3.18
223.245	4.28
223.717	-2.12
224.188	1.03
224.659	0.98
225.13	3.53
225.601	1.83
226.072	3.63
226.543	6.53
227.014	3.03
227.485	3.93
227.956	3.48
228.427	11.93
228.898	2.68
229.369	2.23
229.839	4.18
230.31	3.28
230.781	0.83
231.252	7.58
231.722	6.83
232.193	5.63
232.664	4.63
233.135	4.88
233.605	4.93
234.076	9.03
234.546	5.63
235.017	9.08
235.487	9.83
235.958	9.33
236.428	10.28
236.899	4.43
237.369	9.63
237.84	11.43
238.31	12.38
238.78	4.63
239.251	5.63
239.721	6.83
240.191	7.98
240.662	12.98
241.132	8.63
241.602	10.98
242.072	9.93
242.542	8.83
243.013	13.13
243.483	15.48
243.953	5.43
244.423	11.78
244.893	12.53
245.363	17.03
245.833	12.73
246.303	15.03
246.773	15.88
247.243	16.73
247.712	17.53
248.182	16.23
248.652	20.43
249.122	20.18
249.592	22.08
250.061	17.63
250.531	18.13
251.001	17.13
251.471	21.28
251.94	20.73
252.41	19.58
252.879	18.88
253.349	26.03
253.818	18.98
254.288	26.28
254.757	17.33
255.227	29.23
255.696	21.88
256.166	24.88
256.635	25.53
257.105	23.13
257.574	23.88
258.043	23.63
258.513	26.48
258.982	19.93
259.451	32.03
259.92	25.23
260.389	27.53
260.859	27.43
261.328	30.03
261.797	23.58
262.266	34.18
262.735	30.28
263.204	24.93
263.673	30.83
264.142	22.73
264.611	27.33
265.08	28.23
265.549	30.88
266.018	30.53
266.487	32.68
266.955	28.38
267.424	34.88
267.893	38.53
268.362	34.63
268.83	33.03
269.299	31.58
269.768	32.53
270.236	32.03
270.705	37.18
271.174	36.33
271.642	34.58
272.111	35.38
272.579	39.63
273.048	41.13
273.516	40.83
273.985	37.88
274.453	38.68
274.922	34.13
275.39	35.93
275.858	40.83
276.327	38.73
276.795	38.08
277.263	43.43
277.731	39.68
278.2	44.88
278.668	41.63
279.136	40.23
279.604	44.23
280.072	45.98
280.54	47.48
281.008	45.78
281.477	48.73
281.945	44.78
282.413	45.08
282.881	50.13
283.348	48.08
283.816	49.73
284.284	52.23
284.752	54.73
285.22	55.78
285.688	49.98
286.156	57.53
286.623	53.58
287.091	53.63
287.559	55.18
288.026	56.68
288.494	55.13
288.962	58.08
289.429	58.18
289.897	50.23
290.364	60.78
290.832	55.28
291.3	62.68
291.767	56.18
292.234	60.98
292.702	59.68
293.169	60.23
293.637	62.38
294.104	63.18
294.571	62.13
295.039	68.48
295.506	62.48
295.973	61.03
296.44	68.93
296.908	70.98
297.375	64.98
297.842	72.33
298.309	69.08
298.776	66.98
299.243	72.28
299.71	70.43
300.177	67.33
300.644	68.48
301.111	72.68
301.578	75.13
302.045	72.13
302.512	76.13
302.979	77.28
303.446	78.48
303.913	78.48
304.379	79.73
304.846	79.83
305.313	87.33
305.78	88.68
306.246	86.13
306.713	83.63
307.18	91.83
307.646	89.53
308.113	84.58
308.579	93.78
309.046	96.23
309.512	94.13
309.979	98.73
310.445	91.43
310.912	93.43
311.378	101.18
311.845	99.83
312.311	98.08
312.777	94.28
313.244	103.63
313.71	97.18
314.176	106.88
314.642	101.68
315.109	108.63
315.575	97.08
316.041	106.03
316.507	103.13
316.973	112.53
317.439	115.23
317.905	113.48
318.371	109.33
318.837	106.23
319.303	109.48
319.769	111.08
320.235	112.58
320.701	114.38
321.167	116.88
321.633	112.23
322.099	112.78
322.564	115.88
323.03	117.63
323.496	119.28
323.962	121.43
324.427	125.13
324.893	124.33
325.359	129.73
325.824	128.73
326.29	132.83
326.755	128.98
327.221	127.48
327.686	137.08
328.152	131.38
328.617	134.48
329.083	138.78
329.548	137.63
330.014	138.93
330.479	145.83
330.944	141.53
331.41	145.38
331.875	133.38
332.34	137.33
332.805	145.93
333.271	144.53
333.736	146.13
334.201	143.93
334.666	154.13
335.131	155.93
335.596	155.18
336.061	151.73
336.526	147.33
336.991	148.68
337.456	150.83
337.921	144.88
338.386	144.08
338.851	142.18
339.316	150.03
339.781	143.68
340.246	151.93
340.711	154.63
341.175	154.98
341.64	161.28
342.105	157.03
342.569	172.93
343.034	160.08
343.499	170.98
343.963	177.78
344.428	171.23
344.893	173.58
345.357	179.73
345.822	182.43
346.286	182.98
346.751	184.93
347.215	189.13
347.679	192.48
348.144	200.38
348.608	204.53
349.073	206.38
349.537	209.93
350.001	207.38
350.465	207.03
350.93	208.53
351.394	214.58
351.858	215.63
352.322	220.33
352.786	217.28
353.25	217.98
353.715	221.63
354.179	235.03
354.643	240.93
355.107	239.18
355.571	236.08
356.035	238.63
356.498	235.78
356.962	231.03
357.426	227.13
357.89	226.13
358.354	224.78
358.818	225.38
359.281	227.33
359.745	229.58
360.209	230.88
360.673	229.53
361.136	226.93
361.6	230.98
362.064	233.58
362.527	242.43
362.991	236.88
363.454	237.83
363.918	241.83
364.381	245.98
364.845	247.18
365.308	245.98
365.772	255.23
366.235	250.23
366.698	248.13
367.162	246.28
367.625	247.78
368.088	255.08
368.552	252.13
369.015	250.98
369.478	261.53
369.941	254.43
370.404	262.68
370.867	260.58
371.331	262.03
371.794	264.98
372.257	264.93
372.72	261.13
373.183	270.18
373.646	269.53
374.109	272.88
374.572	273.28
375.035	272.38
375.497	276.58
375.96	281.33
376.423	284.78
376.886	287.53
377.349	291.73
377.811	292.38
378.274	294.93
378.737	284.68
379.199	291.03
379.662	300.63
380.125	296.93
380.587	305.58
381.05	303.23
381.512	316.83
381.975	319.88
382.437	334.38
382.9	331.73
383.362	323.78
383.825	324.23
384.287	331.48
384.75	332.88
385.212	330.73
385.674	331.83
386.136	342.28
386.599	339.78
387.061	329.33
387.523	335.43
387.985	340.03
388.447	345.58
388.91	346.13
389.372	344.63
389.834	350.63
390.296	340.38
390.758	346.13
391.22	343.78
391.682	345.93
392.144	342.08
392.606	347.48
393.068	355.03
393.529	379.38
393.991	386.68
394.453	368.18
394.915	354.93
395.377	343.43
395.838	357.58
396.3	352.23
396.762	361.33
397.224	359.63
397.685	355.68
398.147	369.28
398.608	363.98
399.07	368.43
399.531	371.98
399.993	384.28
400.454	388.33
400.916	382.58
401.377	397.13
401.839	400.13
402.3	406.98
402.762	413.73
403.223	446.33
403.684	440.38
404.145	427.18
404.607	407.18
405.068	394.58
405.529	398.93
405.99	399.53
406.451	410.03
406.913	398.53
407.374	405.28
407.835	399.13
408.296	417.48
408.757	417.98
409.218	427.13
409.679	433.93
410.14	438.08
410.601	455.48
411.062	458.68
411.522	463.53
411.983	465.98
412.444	477.13
412.905	484.43
413.366	505.63
413.826	540.08
414.287	615.63
414.748	757.68
415.208	774.73
415.669	632.88
416.13	566.53
416.59	556.53
417.051	591.08
417.511	614.18
417.972	666.38
418.432	738.98
418.893	823.53
419.353	774.13
419.814	581.13
420.274	511.93
420.734	502.18
421.195	513.43
421.655	510.03
422.115	521.03
422.576	519.78
423.036	518.18
423.496	535.08
423.956	558.88
424.416	597.58
424.876	678.68
425.336	673.23
425.797	654.18
426.257	632.18
426.717	587.48
427.177	531.23
427.637	519.38
428.097	529.43
428.556	546.38
429.016	587.83
429.476	573.08
429.936	542.23
430.396	534.08
430.856	540.78
431.315	551.53
431.775	587.03
432.235	650.13
432.694	663.53
433.154	609.38
433.614	587.78
434.073	578.43
434.533	530.68
434.993	526.28
435.452	534.03
435.912	527.78
436.371	540.73
436.83	540.13
437.29	537.28
437.749	534.98
438.209	535.68
438.668	551.58
439.127	558.83
439.587	554.18
440.046	545.13
440.505	565.68
440.964	572.58
441.424	584.23
441.883	602.78
442.342	572.18
442.801	553.73
443.26	563.83
443.719	560.23
444.178	554.73
444.637	570.13
445.096	580.13
445.555	583.88
446.014	583.03
446.473	571.03
446.932	584.88
447.391	586.53
447.849	597.63
448.308	589.78
448.767	595.13
449.226	600.28
449.685	618.28
450.143	640.63
450.602	633.03
451.061	604.43
451.519	604.48
451.978	595.78
452.436	590.03
452.895	595.28
453.353	599.63
453.812	589.63
454.27	593.83
454.729	588.73
455.187	606.18
455.646	602.53
456.104	595.88
456.562	605.33
457.021	613.98
457.479	588.23
457.937	607.73
458.395	625.68
458.854	626.03
459.312	612.68
459.77	613.98
460.228	625.93
460.686	635.98
461.144	641.83
461.602	626.08
462.06	628.73
462.518	642.83
462.976	635.48
463.434	644.53
463.892	652.53
464.35	664.83
464.808	668.93
465.266	681.58
465.724	694.48
466.181	695.23
466.639	687.88
467.097	719.08
467.555	746.28
468.012	727.73
468.47	733.28
468.928	758.48
469.385	780.73
469.843	784.38
470.3	777.33
470.758	805.33
471.215	804.23
471.673	821.48
472.13	837.78
472.588	852.58
473.045	848.08
473.503	862.73
473.96	899.63
474.417	901.78
474.875	932.58
475.332	952.33
475.789	957.93
476.246	973.33
476.704	995.28
477.161	997.38
477.618	996.98
478.075	1020.13
478.532	1052.03
478.989	1083.93
479.446	1134.83
479.903	1122.48
480.36	1143.88
480.817	1148.63
481.274	1148.88
481.731	1176.18
482.188	1201.88
482.645	1232.93
483.102	1238.28
483.558	1274.93
484.015	1296.78
484.472	1299.33
484.929	1315.23
485.385	1310.28
485.842	1320.43
486.299	1331.53
486.755	1325.48
487.212	1300.78
487.668	1265.48
488.125	1258.68
488.582	1243.53
489.038	1258.18
489.494	1265.23
489.951	1271.78
490.407	1275.38
490.864	1275.53
491.32	1271.28
491.776	1278.38
492.233	1306.53
492.689	1293.43
493.145	1276.38
493.602	1274.78
494.058	1289.88
494.514	1302.58
494.97	1305.13
495.426	1331.58
495.882	1337.08
496.338	1339.98
496.794	1359.83
497.251	1354.68
497.707	1377.43
498.163	1380.03
498.618	1384.08
499.074	1374.28
499.53	1399.28
499.986	1400.68
500.442	1400.33
500.898	1385.93
501.354	1404.43
501.809	1401.98
502.265	1407.63
502.721	1413.33
503.177	1416.48
503.632	1430.13
504.088	1427.03
504.543	1453.78
504.999	1458.73
505.455	1456.23
505.91	1441.88
506.366	1448.53
506.821	1449.08
507.277	1450.58
507.732	1447.13
508.187	1443.33
508.643	1459.03
509.098	1461.43
509.553	1471.68
510.009	1497.08
510.464	1513.53
510.919	1527.93
511.375	1553.03
511.83	1573.78
512.285	1601.88
512.74	1633.18
513.195	1652.23
513.65	1683.98
514.105	1707.48
514.56	1718.83
515.015	1749.43
515.47	1755.13
515.925	1732.63
516.38	1736.93
516.835	1746.73
517.29	1739.83
517.745	1738.83
518.2	1706.38
518.655	1679.78
519.109	1645.83
519.564	1626.68
520.019	1607.08
520.474	1594.48
520.928	1586.28
521.383	1576.58
521.838	1569.33
522.292	1561.28
522.747	1538.43
523.201	1544.13
523.656	1518.03
524.11	1518.88
524.565	1505.08
525.019	1515.68
525.474	1513.43
525.928	1494.38
526.382	1494.13
526.837	1495.58
527.291	1500.08
527.745	1493.78
528.2	1484.58
528.654	1474.78
529.108	1475.08
529.562	1480.63
530.016	1478.78
530.47	1470.93
530.925	1463.18
531.379	1462.33
531.833	1480.18
532.287	1481.33
532.741	1475.83
533.195	1478.38
533.649	1481.38
534.103	1483.43
534.556	1464.18
535.01	1479.53
535.464	1468.63
535.918	1468.88
536.372	1489.18
536.826	1473.63
537.279	1465.93
537.733	1473.43
538.187	1476.93
538.64	1477.03
539.094	1492.73
539.548	1504.83
540.001	1504.23
540.455	1507.38
540.908	1521.08
541.362	1540.28
541.815	1544.83
542.269	1582.48
542.722	1572.98
543.175	1590.23
543.629	1601.53
544.082	1621.33
544.536	1635.13
544.989	1644.03
545.442	1649.98
545.895	1653.93
546.349	1650.98
546.802	1655.43
547.255	1657.93
547.708	1681.13
548.161	1700.98
548.614	1694.28
549.067	1709.18
549.52	1690.28
549.973	1663.23
550.426	1652.48
550.879	1655.93
551.332	1647.73
551.785	1661.18
552.238	1670.98
552.691	1678.38
553.144	1693.38
553.596	1732.08
554.049	1754.03
554.502	1789.08
554.955	1828.23
555.407	1853.18
555.86	1835.93
556.313	1801.33
556.765	1798.13
557.218	1761.93
557.67	1753.78
558.123	1729.18
558.576	1725.18
559.028	1730.03
559.48	1757.63
559.933	1738.98
560.385	1682.38
560.838	1617.83
561.29	1571.88
561.742	1567.73
562.195	1523.23
562.647	1513.23
563.099	1502.23
563.551	1494.23
564.004	1516.88
564.456	1515.38
564.908	1468.08
565.36	1437.48
565.812	1392.48
566.264	1388.18
566.716	1365.88
567.168	1349.28
567.62	1337.93
568.072	1334.18
568.524	1332.23
568.976	1314.53
569.428	1312.53
569.88	1305.18
570.332	1312.73
570.784	1312.58
571.235	1301.43
571.687	1325.08
572.139	1325.03
572.59	1346.93
573.042	1349.68
573.494	1348.23
573.945	1319.98
574.397	1293.38
574.849	1287.98
575.3	1292.98
575.752	1272.28
576.203	1263.48
576.655	1283.28
577.106	1251.38
577.557	1247.23
578.009	1234.93
578.46	1243.33
578.912	1228.83
579.363	1231.43
579.814	1228.83
580.265	1230.48
580.717	1235.78
581.168	1230.08
581.619	1241.43
582.07	1252.78
582.521	1242.13
582.972	1234.58
583.423	1233.08
583.875	1245.68
584.326	1263.08
584.777	1272.38
585.227	1296.48
585.678	1311.73
586.129	1327.18
586.58	1343.53
587.031	1364.18
587.482	1400.23
587.933	1422.73
588.384	1425.28
588.834	1416.83
589.285	1406.33
589.736	1405.73
590.186	1423.18
590.637	1396.78
591.088	1350.78
591.538	1329.93
591.989	1315.98
592.439	1297.03
592.89	1277.93
593.34	1267.58
593.791	1263.93
594.241	1248.03
594.692	1252.58
595.142	1248.58
595.593	1248.78
596.043	1257.38
596.493	1275.78
596.943	1258.13
597.394	1288.43
597.844	1308.88
598.294	1338.93
598.744	1398.78
599.195	1468.13
599.645	1559.53
600.095	1645.33
600.545	1727.98
600.995	1825.43
601.445	1890.93
601.895	1988.98
602.345	2077.73
602.795	2040.28
603.245	1956.03
603.695	1828.53
604.145	1718.78
604.594	1627.68
605.044	1529.88
605.494	1420.83
605.944	1342.63
606.393	1304.48
606.843	1279.83
607.293	1281.68
607.743	1274.13
608.192	1284.73
608.642	1290.08
609.091	1296.38
609.541	1293.58
609.99	1287.13
610.44	1256.88
610.889	1249.03
611.339	1223.13
611.788	1206.33
612.238	1211.73
612.687	1211.18
613.136	1215.83
613.586	1229.68
614.035	1233.08
614.484	1231.73
614.933	1237.23
615.383	1218.93
615.832	1187.28
616.281	1175.58
616.73	1152.23
617.179	1117.38
617.628	1095.98
618.077	1073.23
618.526	1057.23
618.975	1048.58
619.424	1031.33
619.873	1038.43
620.322	1029.63
620.771	1028.18
621.22	1004.63
621.669	979.03
622.118	976.93
622.567	955.53
623.015	942.73
623.464	944.38
623.913	933.78
624.361	936.08
624.81	925.23
625.259	933.03
625.707	919.28
626.156	933.98
626.604	945.78
627.053	959.13
627.501	955.73
627.95	962.13
628.398	969.28
628.847	952.98
629.295	948.13
629.744	953.23
630.192	929.08
630.64	917.68
631.089	895.33
631.537	864.08
631.985	851.53
632.433	849.18
632.881	842.28
633.33	851.08
633.778	846.53
634.226	856.38
634.674	867.33
635.122	876.23
635.57	889.73
636.018	898.98
636.466	892.48
636.914	891.83
637.362	910.93
637.81	924.73
638.258	942.68
638.705	956.63
639.153	991.43
639.601	1001.23
640.049	1012.58
640.497	1043.73
640.944	1072.78
641.392	1013.03
641.84	931.23
642.287	876.58
642.735	843.13
643.182	830.03
643.63	816.68
644.078	815.68
644.525	813.18
644.973	824.43
645.42	826.78
645.867	829.58
646.315	830.98
646.762	836.68
647.21	825.93
647.657	834.48
648.104	820.68
648.551	789.88
648.999	787.58
649.446	788.78
649.893	778.73
650.34	788.43
650.787	798.63
651.234	838.78
651.682	902.68
652.129	979.18
652.576	1121.28
653.023	1292.43
653.47	1390.93
653.917	1458.48
654.363	1496.98
654.81	1565.83
655.257	1622.48
655.704	1278.58
656.151	995.53
656.598	872.83
657.044	809.18
657.491	792.18
657.938	771.03
658.385	760.98
658.831	760.13
659.278	759.58
659.724	743.88
660.171	735.63
660.618	711.98
661.064	704.33
661.511	708.88
661.957	703.58
662.404	715.23
662.85	721.88
663.296	725.48
663.743	727.93
664.189	734.33
664.635	736.93
665.082	727.48
665.528	726.88
665.974	711.78
666.42	706.48
666.867	705.68
667.313	661.18
667.759	663.88
668.205	663.08
668.651	666.53
669.097	668.23
669.543	677.43
669.989	683.48
670.435	682.08
670.881	686.93
671.327	731.13
671.773	781.68
672.219	850.28
672.665	914.83
673.11	953.58
673.556	980.68
674.002	1022.88
674.448	1038.58
674.893	867.63
675.339	738.68
675.785	685.18
676.23	649.03
676.676	620.23
677.122	609.88
677.567	592.13
678.013	576.38
678.458	561.43
678.904	561.53
679.349	557.18
679.794	555.73
680.24	559.73
680.685	545.33
681.131	555.13
681.576	560.08
682.021	554.33
682.466	569.53
682.912	570.83
683.357	597.48
683.802	649.03
684.247	717.78
684.692	775.43
685.137	814.08
685.583	840.08
686.028	903.18
686.473	852.78
686.918	721.33
687.363	655.58
687.807	622.88
688.252	586.33
688.697	558.08
689.142	547.33
689.587	543.58
690.032	555.68
690.477	568.78
690.921	608.78
691.366	644.33
691.811	675.48
692.255	731.03
692.7	891.83
693.145	1278.93
693.589	1973.18
694.034	2401.68
694.478	2634.78
694.923	2468.53
695.367	3641.38
695.812	2137.18
696.256	851.58
696.701	613.13
697.145	557.48
697.59	532.33
698.034	524.88
698.478	520.18
698.922	526.38
699.367	539.08
699.811	571.73
700.255	623.43
700.699	682.73
701.143	751.93
701.588	803.33
702.032	847.58
702.476	863.38
702.92	909.93
703.364	1171.68
703.808	1813.48
704.252	2307.93
704.696	2518.83
705.14	2422.03
705.584	3445.23
706.027	1837.63
706.471	894.88
706.915	648.88
707.359	565.33
707.803	527.33
708.246	512.58
708.69	504.33
709.134	497.53
709.577	491.73
710.021	498.58
710.465	509.23
710.908	494.38
711.352	519.83
711.795	575.43
712.239	615.38
712.682	638.08
713.126	630.33
713.569	720.98
714.012	574.28
714.456	495.68
714.899	468.83
715.342	444.63
715.786	429.38
716.229	413.53
716.672	404.13
717.115	403.43
717.558	408.33
718.002	421.18
718.445	445.98
718.888	472.98
719.331	485.13
719.774	489.68
720.217	477.78
720.66	452.03
721.103	427.83
721.546	397.53
721.989	387.88
722.432	385.03
722.874	382.83
723.317	383.98
723.76	418.58
724.203	519.73
724.645	708.53
725.088	857.18
725.531	852.48
725.974	968.58
726.416	853.88
726.859	503.13
727.301	403.08
727.744	380.53
728.187	378.88
728.629	386.98
729.071	415.58
729.514	436.93
729.956	458.83
730.399	459.63
730.841	464.18
731.283	448.53
731.726	436.33
732.168	442.93
732.61	466.03
733.053	501.73
733.495	565.38
733.937	628.43
734.379	747.28
734.821	950.08
735.263	1504.23
735.705	2710.48
736.148	4092.98
736.59	4234.08
737.032	4767.68
737.474	3881.93
737.916	1427.98
738.357	726.18
738.799	552.03
739.241	502.13
739.683	509.23
740.125	515.03
740.567	525.73
741.008	559.98
741.45	587.43
741.892	607.88
742.334	623.53
742.775	620.48
743.217	593.88
743.658	491.73
744.1	496.43
744.542	562.88
744.983	594.18
745.425	627.08
745.866	620.58
746.307	515.63
746.749	547.58
747.19	804.13
747.632	1586.08
748.073	2985.13
748.514	4245.68
748.956	5814.73
749.397	6878.73
749.838	4697.58
750.279	4634.73
750.72	2314.78
751.162	948.08
