Data from MSPlasma+Separation6_Subt14_10-12-32-119.txt Node
Date: Fri Jul 21 10:12:32 EDT 2017
User: Ender
Spectrometer: HR+D1039
Trigger mode: 0
Integration Time (sec): 6.430000E-3
Scans to average: 20
Electric dark correction enabled: true
Nonlinearity correction enabled: false
Boxcar width: 0
XAxis mode: Wavelengths
Number of Pixels in Spectrum: 2048
>>>>>Begin Spectral Data<<<<<
187.836	3.47
188.309	3.47
188.782	3.47
189.255	2.07
189.728	0.62
190.201	-0.83
190.674	4.52
191.147	0.67
191.619	-1.73
192.092	-0.68
192.565	-5.53
193.038	4.37
193.511	3.77
193.984	-0.98
194.456	-2.73
194.929	0.07
195.402	-3.28
195.874	-3.73
196.347	2.77
196.82	4.12
197.292	-1.63
197.765	-3.33
198.237	-1.98
198.71	-0.58
199.182	-0.58
199.655	-0.03
200.127	-0.93
200.6	-2.63
201.072	-1.68
201.544	-4.83
202.017	1.32
202.489	1.52
202.961	-1.13
203.433	-3.08
203.906	0.52
204.378	0.02
204.85	-3.03
205.322	-1.23
205.794	1.32
206.266	-4.53
206.739	4.47
207.211	-3.28
207.683	0.17
208.155	1.27
208.627	0.62
209.099	1.82
209.57	-0.83
210.042	1.42
210.514	-1.58
210.986	-2.23
211.458	-2.68
211.93	-1.58
212.402	-0.08
212.873	-0.13
213.345	-6.58
213.817	-2.28
214.288	-0.53
214.76	0.67
215.232	-2.88
215.703	-0.08
216.175	4.42
216.646	0.47
217.118	0.52
217.589	-2.58
218.061	1.77
218.532	-3.58
219.004	5.62
219.475	-1.23
219.946	2.82
220.418	5.12
220.889	1.62
221.36	2.67
221.832	6.32
222.303	0.12
222.774	2.07
223.245	-1.13
223.717	-0.88
224.188	0.87
224.659	3.32
225.13	-2.93
225.601	-0.18
226.072	2.27
226.543	4.87
227.014	-0.23
227.485	5.52
227.956	6.07
228.427	9.47
228.898	6.92
229.369	5.57
229.839	4.37
230.31	2.72
230.781	4.42
231.252	7.27
231.722	3.47
232.193	4.82
232.664	6.97
233.135	4.92
233.605	3.92
234.076	14.02
234.546	3.72
235.017	12.92
235.487	5.62
235.958	6.57
236.428	11.77
236.899	6.77
237.369	13.52
237.84	10.47
238.31	9.97
238.78	12.07
239.251	10.77
239.721	8.92
240.191	6.87
240.662	14.67
241.132	11.42
241.602	11.57
242.072	13.02
242.542	11.17
243.013	11.22
243.483	14.27
243.953	7.52
244.423	13.02
244.893	8.97
245.363	14.92
245.833	14.52
246.303	12.02
246.773	12.27
247.243	11.17
247.712	14.47
248.182	16.32
248.652	15.72
249.122	14.12
249.592	13.12
250.061	14.32
250.531	14.57
251.001	18.57
251.471	16.12
251.94	17.52
252.41	19.17
252.879	16.97
253.349	24.42
253.818	20.87
254.288	23.07
254.757	22.22
255.227	24.57
255.696	24.87
256.166	24.87
256.635	22.42
257.105	22.27
257.574	23.17
258.043	24.02
258.513	25.47
258.982	23.67
259.451	25.52
259.92	20.52
260.389	27.52
260.859	26.62
261.328	25.97
261.797	24.37
262.266	25.27
262.735	30.37
263.204	24.52
263.673	27.67
264.142	22.12
264.611	28.52
265.08	30.67
265.549	22.57
266.018	28.87
266.487	29.22
266.955	25.47
267.424	34.47
267.893	33.77
268.362	31.92
268.83	30.57
269.299	31.82
269.768	33.77
270.236	34.27
270.705	34.42
271.174	33.37
271.642	34.92
272.111	36.92
272.579	30.22
273.048	34.82
273.516	40.07
273.985	36.52
274.453	41.87
274.922	35.62
275.39	34.82
275.858	40.37
276.327	38.32
276.795	38.82
277.263	39.47
277.731	41.77
278.2	44.02
278.668	43.47
279.136	39.17
279.604	45.12
280.072	38.87
280.54	41.32
281.008	44.72
281.477	44.77
281.945	44.37
282.413	47.22
282.881	47.32
283.348	45.92
283.816	48.02
284.284	48.22
284.752	50.07
285.22	52.52
285.688	55.67
286.156	50.52
286.623	55.37
287.091	51.77
287.559	54.42
288.026	54.07
288.494	55.77
288.962	58.17
289.429	54.62
289.897	51.92
290.364	54.27
290.832	54.32
291.3	57.37
291.767	60.87
292.234	61.27
292.702	55.47
293.169	62.77
293.637	64.87
294.104	63.62
294.571	62.42
295.039	64.72
295.506	57.02
295.973	64.42
296.44	61.27
296.908	69.47
297.375	63.67
297.842	63.92
298.309	66.02
298.776	65.27
299.243	69.42
299.71	70.42
300.177	67.32
300.644	68.07
301.111	66.42
301.578	75.82
302.045	71.52
302.512	67.92
302.979	71.37
303.446	77.92
303.913	76.62
304.379	77.57
304.846	77.32
305.313	86.72
305.78	88.47
306.246	85.52
306.713	85.72
307.18	85.12
307.646	88.27
308.113	87.37
308.579	90.37
309.046	92.57
309.512	91.62
309.979	94.67
310.445	90.62
310.912	94.72
311.378	103.02
311.845	98.37
312.311	94.02
312.777	97.27
313.244	103.07
313.71	98.22
314.176	104.87
314.642	101.97
315.109	101.47
315.575	102.62
316.041	107.57
316.507	106.97
316.973	110.82
317.439	113.07
317.905	110.72
318.371	106.47
318.837	111.07
319.303	110.57
319.769	111.42
320.235	116.92
320.701	116.32
321.167	113.32
321.633	113.57
322.099	114.12
322.564	121.27
323.03	116.92
323.496	115.52
323.962	117.77
324.427	125.12
324.893	125.07
325.359	125.82
325.824	124.92
326.29	128.17
326.755	125.02
327.221	128.47
327.686	138.57
328.152	138.12
328.617	136.37
329.083	142.22
329.548	138.42
330.014	138.42
330.479	140.92
330.944	139.52
331.41	146.72
331.875	141.02
332.34	138.32
332.805	148.42
333.271	141.67
333.736	143.02
334.201	144.17
334.666	152.07
335.131	156.02
335.596	156.72
336.061	150.02
336.526	151.12
336.991	145.62
337.456	146.82
337.921	142.87
338.386	147.42
338.851	151.32
339.316	148.12
339.781	146.32
340.246	150.02
340.711	152.27
341.175	157.42
341.64	161.82
342.105	163.47
342.569	173.52
343.034	169.72
343.499	169.97
343.963	177.12
344.428	174.57
344.893	173.97
345.357	184.07
345.822	183.52
346.286	186.32
346.751	188.52
347.215	184.82
347.679	197.22
348.144	206.37
348.608	204.07
349.073	207.12
349.537	215.27
350.001	213.27
350.465	212.07
350.93	208.32
351.394	214.57
351.858	218.37
352.322	218.82
352.786	221.17
353.25	219.82
353.715	228.67
354.179	237.02
354.643	241.52
355.107	239.82
355.571	243.87
356.035	239.52
356.498	237.47
356.962	233.37
357.426	231.62
357.89	228.67
358.354	226.92
358.818	227.02
359.281	229.12
359.745	236.92
360.209	226.82
360.673	230.22
361.136	233.02
361.6	238.22
362.064	238.27
362.527	249.32
362.991	244.07
363.454	240.72
363.918	255.47
364.381	252.67
364.845	247.62
365.308	248.12
365.772	254.22
366.235	252.92
366.698	248.77
367.162	245.87
367.625	251.07
368.088	256.87
368.552	257.37
369.015	253.12
369.478	265.27
369.941	263.22
370.404	268.57
370.867	261.47
371.331	267.82
371.794	269.82
372.257	267.32
372.72	269.02
373.183	274.77
373.646	271.62
374.109	271.97
374.572	278.47
375.035	279.87
375.497	284.47
375.96	290.52
376.423	289.87
376.886	292.77
377.349	301.02
377.811	296.27
378.274	301.47
378.737	293.72
379.199	304.32
379.662	300.72
380.125	311.37
380.587	310.02
381.05	317.27
381.512	320.42
381.975	326.42
382.437	335.77
382.9	333.17
383.362	332.77
383.825	334.12
384.287	335.82
384.75	336.77
385.212	345.77
385.674	344.27
386.136	354.12
386.599	342.32
387.061	340.62
387.523	347.37
387.985	345.27
388.447	354.62
388.91	352.37
389.372	358.42
389.834	347.57
390.296	345.87
390.758	352.67
391.22	346.72
391.682	355.22
392.144	350.62
392.606	360.47
393.068	368.17
393.529	386.67
393.991	399.67
394.453	371.67
394.915	365.17
395.377	352.32
395.838	359.72
396.3	360.87
396.762	365.27
397.224	366.27
397.685	360.52
398.147	374.52
398.608	377.12
399.07	380.87
399.531	379.17
399.993	392.07
400.454	398.62
400.916	390.72
401.377	403.62
401.839	409.07
402.3	406.77
402.762	421.92
403.223	452.72
403.684	451.12
404.145	430.02
404.607	410.27
405.068	409.22
405.529	405.72
405.99	415.47
406.451	418.67
406.913	413.72
407.374	414.57
407.835	413.97
408.296	426.42
408.757	422.27
409.218	434.22
409.679	446.17
410.14	446.07
410.601	458.52
411.062	467.32
411.522	478.32
411.983	479.42
412.444	483.42
412.905	494.62
413.366	524.07
413.826	548.22
414.287	632.42
414.748	787.27
415.208	795.92
415.669	644.97
416.13	578.32
416.59	571.17
417.051	604.22
417.511	633.52
417.972	688.82
418.432	749.12
418.893	838.62
419.353	799.92
419.814	592.47
420.274	524.27
420.734	513.22
421.195	524.27
421.655	517.37
422.115	531.17
422.576	526.32
423.036	537.57
423.496	554.27
423.956	575.57
424.416	616.07
424.876	692.87
425.336	684.72
425.797	660.17
426.257	653.17
426.717	600.27
427.177	539.42
427.637	531.32
428.097	544.57
428.556	567.47
429.016	602.12
429.476	590.77
429.936	555.17
430.396	545.42
430.856	555.07
431.315	559.12
431.775	604.57
432.235	663.47
432.694	679.82
433.154	618.22
433.614	611.47
434.073	589.47
434.533	543.87
434.993	528.97
435.452	546.37
435.912	537.57
436.371	554.97
436.83	556.07
437.29	557.82
437.749	546.07
438.209	546.77
438.668	558.37
439.127	568.67
439.587	570.22
440.046	556.77
440.505	573.97
440.964	568.87
441.424	591.77
441.883	609.52
442.342	582.32
442.801	560.22
443.26	570.37
443.719	567.52
444.178	573.22
444.637	574.92
445.096	579.27
445.555	587.42
446.014	589.12
446.473	587.07
446.932	591.17
447.391	588.42
447.849	607.47
448.308	593.72
448.767	597.02
449.226	604.27
449.685	623.42
450.143	656.67
450.602	644.97
451.061	612.77
451.519	607.97
451.978	599.27
452.436	597.17
452.895	607.52
453.353	602.62
453.812	596.02
454.27	596.07
454.729	605.47
455.187	608.22
455.646	603.47
456.104	606.67
456.562	618.42
457.021	616.32
457.479	602.57
457.937	609.62
458.395	638.22
458.854	635.32
459.312	618.02
459.77	619.67
460.228	633.02
460.686	635.57
461.144	639.42
461.602	627.02
462.06	639.42
462.518	652.32
462.976	648.07
463.434	651.92
463.892	656.22
464.35	675.12
464.808	678.32
465.266	688.52
465.724	697.52
466.181	695.17
466.639	691.22
467.097	716.82
467.555	735.32
468.012	729.67
468.47	737.07
468.928	764.22
469.385	786.87
469.843	784.52
470.3	777.87
470.758	801.47
471.215	807.67
471.673	833.77
472.13	844.57
472.588	860.47
473.045	860.62
473.503	870.12
473.96	911.67
474.417	905.72
474.875	940.62
475.332	948.52
475.789	968.87
476.246	980.92
476.704	992.77
477.161	1006.72
477.618	996.67
478.075	1028.17
478.532	1048.67
478.989	1088.17
479.446	1136.07
479.903	1117.37
480.36	1149.62
480.817	1140.02
481.274	1152.92
481.731	1183.32
482.188	1211.47
482.645	1231.82
483.102	1242.12
483.558	1275.82
484.015	1305.37
484.472	1308.37
484.929	1309.47
485.385	1309.57
485.842	1320.52
486.299	1327.67
486.755	1325.82
487.212	1306.02
487.668	1269.27
488.125	1265.97
488.582	1249.07
489.038	1262.12
489.494	1277.07
489.951	1272.22
490.407	1267.42
490.864	1268.72
491.32	1267.47
491.776	1271.62
492.233	1296.32
492.689	1292.82
493.145	1277.87
493.602	1271.72
494.058	1294.57
494.514	1298.27
494.97	1305.72
495.426	1332.52
495.882	1331.77
496.338	1335.72
496.794	1348.32
497.251	1345.27
497.707	1365.17
498.163	1371.22
498.618	1371.82
499.074	1372.87
499.53	1383.77
499.986	1392.17
500.442	1391.17
500.898	1372.12
501.354	1395.07
501.809	1396.37
502.265	1394.62
502.721	1407.92
503.177	1411.12
503.632	1420.32
504.088	1428.57
504.543	1438.67
504.999	1456.22
505.455	1453.87
505.91	1430.82
506.366	1442.62
506.821	1453.57
507.277	1437.62
507.732	1448.87
508.187	1450.42
508.643	1452.02
509.098	1451.97
509.553	1472.67
510.009	1484.92
510.464	1526.62
510.919	1527.72
511.375	1536.87
511.83	1563.32
512.285	1573.97
512.74	1614.07
513.195	1642.82
513.65	1668.97
514.105	1696.62
514.56	1703.67
515.015	1739.07
515.47	1737.77
515.925	1720.47
516.38	1716.32
516.835	1728.67
517.29	1727.42
517.745	1716.67
518.2	1697.27
518.655	1654.82
519.109	1628.87
519.564	1592.92
520.019	1585.57
520.474	1575.62
520.928	1572.27
521.383	1565.67
521.838	1544.72
522.292	1543.52
522.747	1531.77
523.201	1520.02
523.656	1500.97
524.11	1507.87
524.565	1493.57
525.019	1494.52
525.474	1500.47
525.928	1474.17
526.382	1483.62
526.837	1476.12
527.291	1480.32
527.745	1472.42
528.2	1477.07
528.654	1460.22
529.108	1455.77
529.562	1457.82
530.016	1456.72
530.47	1450.02
530.925	1451.47
531.379	1451.27
531.833	1463.77
532.287	1463.42
532.741	1460.82
533.195	1445.82
533.649	1451.87
534.103	1464.72
534.556	1448.92
535.01	1451.47
535.464	1451.02
535.918	1445.57
536.372	1463.42
536.826	1464.47
537.279	1443.62
537.733	1443.27
538.187	1454.77
538.64	1450.77
539.094	1466.37
539.548	1482.02
540.001	1486.12
540.455	1482.37
540.908	1498.57
541.362	1519.52
541.815	1522.52
542.269	1564.47
542.722	1555.92
543.175	1568.67
543.629	1575.87
544.082	1592.37
544.536	1613.22
544.989	1616.12
545.442	1630.07
545.895	1624.57
546.349	1624.67
546.802	1631.57
547.255	1632.07
547.708	1642.92
548.161	1666.82
548.614	1672.62
549.067	1678.22
549.52	1671.52
549.973	1643.67
550.426	1625.02
550.879	1618.97
551.332	1616.22
551.785	1626.27
552.238	1641.12
552.691	1643.27
553.144	1669.07
553.596	1697.97
554.049	1711.97
554.502	1753.77
554.955	1798.47
555.407	1830.72
555.86	1795.57
556.313	1774.47
556.765	1745.62
557.218	1720.32
557.67	1716.17
558.123	1702.92
558.576	1695.22
559.028	1694.67
559.48	1732.37
559.933	1714.17
560.385	1651.07
560.838	1585.02
561.29	1545.62
561.742	1527.42
562.195	1501.07
562.647	1485.82
563.099	1481.17
563.551	1471.42
564.004	1479.57
564.456	1480.52
564.908	1431.42
565.36	1398.42
565.812	1369.12
566.264	1367.97
566.716	1340.47
567.168	1318.47
567.62	1321.32
568.072	1306.27
568.524	1296.32
568.976	1294.92
569.428	1279.82
569.88	1283.27
570.332	1294.12
570.784	1294.07
571.235	1287.27
571.687	1301.22
572.139	1297.07
572.59	1308.67
573.042	1320.82
573.494	1320.97
573.945	1292.07
574.397	1261.67
574.849	1251.42
575.3	1260.87
575.752	1246.97
576.203	1237.32
576.655	1234.57
577.106	1215.12
577.557	1216.37
578.009	1203.32
578.46	1216.67
578.912	1200.02
579.363	1208.77
579.814	1198.92
580.265	1205.57
580.717	1205.52
581.168	1200.47
581.619	1203.77
582.07	1230.37
582.521	1220.12
582.972	1200.37
583.423	1204.62
583.875	1214.37
584.326	1221.72
584.777	1248.87
585.227	1275.72
585.678	1284.22
586.129	1299.07
586.58	1317.17
587.031	1340.17
587.482	1388.97
587.933	1403.37
588.384	1395.07
588.834	1392.22
589.285	1368.32
589.736	1378.72
590.186	1395.17
590.637	1374.22
591.088	1318.07
591.538	1297.12
591.989	1280.22
592.439	1265.07
592.89	1249.77
593.34	1242.42
593.791	1236.77
594.241	1219.97
594.692	1221.12
595.142	1218.22
595.593	1218.92
596.043	1228.62
596.493	1234.97
596.943	1227.72
597.394	1268.82
597.844	1281.87
598.294	1315.42
598.744	1372.37
599.195	1432.57
599.645	1516.42
600.095	1624.32
600.545	1695.47
600.995	1786.17
601.445	1850.07
601.895	1958.22
602.345	2020.07
602.795	1994.62
603.245	1909.12
603.695	1774.17
604.145	1666.07
604.594	1577.57
605.044	1486.42
605.494	1386.77
605.944	1303.42
606.393	1271.17
606.843	1249.52
607.293	1249.37
607.743	1242.67
608.192	1259.92
608.642	1262.92
609.091	1251.17
609.541	1257.02
609.99	1250.47
610.44	1226.77
610.889	1202.67
611.339	1186.87
611.788	1172.72
612.238	1176.07
612.687	1179.47
613.136	1192.07
613.586	1206.57
614.035	1203.22
614.484	1216.12
614.933	1205.12
615.383	1179.07
615.832	1154.32
616.281	1139.32
616.73	1120.77
617.179	1097.82
617.628	1070.37
618.077	1048.27
618.526	1047.07
618.975	1035.72
619.424	1008.62
619.873	1012.72
620.322	1002.67
620.771	1002.27
621.22	982.32
621.669	961.62
622.118	946.32
622.567	940.22
623.015	920.22
623.464	917.67
623.913	907.57
624.361	910.72
624.81	895.42
625.259	903.47
625.707	901.12
626.156	911.62
626.604	921.47
627.053	924.17
627.501	929.42
627.95	936.07
628.398	947.72
628.847	925.97
629.295	926.07
629.744	927.22
630.192	900.07
630.64	881.32
631.089	864.82
631.537	840.67
631.985	836.07
632.433	827.22
632.881	827.57
633.33	835.67
633.778	824.62
634.226	831.52
634.674	837.62
635.122	850.37
635.57	855.02
636.018	876.27
636.466	864.07
636.914	867.92
637.362	879.87
637.81	897.27
638.258	926.77
638.705	934.37
639.153	958.22
639.601	972.67
640.049	989.67
640.497	1024.02
640.944	1043.07
641.392	987.92
641.84	912.02
642.287	847.87
642.735	830.77
643.182	811.47
643.63	801.67
644.078	792.22
644.525	789.82
644.973	802.27
645.42	800.52
645.867	795.42
646.315	807.52
646.762	809.17
647.21	803.42
647.657	817.82
648.104	805.92
648.551	766.62
648.999	767.12
649.446	761.77
649.893	754.67
650.34	765.07
650.787	791.07
651.234	820.82
651.682	879.82
652.129	960.12
652.576	1100.07
653.023	1274.22
653.47	1374.22
653.917	1448.17
654.363	1480.32
654.81	1560.32
655.257	1616.17
655.704	1260.32
656.151	979.17
656.598	850.52
657.044	789.87
657.491	774.52
657.938	749.82
658.385	732.02
658.831	734.07
659.278	733.17
659.724	723.82
660.171	721.27
660.618	697.62
661.064	683.87
661.511	686.72
661.957	686.77
662.404	694.87
662.85	707.17
663.296	712.62
663.743	709.02
664.189	716.42
664.635	718.77
665.082	713.07
665.528	710.22
665.974	689.57
666.42	695.77
666.867	689.17
667.313	646.32
667.759	645.92
668.205	645.57
668.651	654.87
669.097	652.87
669.543	649.42
669.989	665.32
670.435	668.37
670.881	671.97
671.327	714.42
671.773	760.42
672.219	824.47
672.665	888.12
673.11	935.82
673.556	952.87
674.002	998.97
674.448	1018.62
674.893	846.12
675.339	722.77
675.785	661.97
676.23	627.72
676.676	604.92
677.122	591.22
677.567	574.77
678.013	548.62
678.458	554.52
678.904	544.77
679.349	541.07
679.794	540.27
680.24	545.72
680.685	540.27
681.131	538.97
681.576	541.17
682.021	538.27
682.466	554.12
682.912	554.97
683.357	583.92
683.802	641.87
684.247	704.12
684.692	761.92
685.137	795.92
685.583	821.32
686.028	873.87
686.473	820.17
686.918	699.32
687.363	631.27
687.807	603.77
688.252	572.72
688.697	547.12
689.142	527.02
689.587	529.67
690.032	535.47
690.477	561.97
690.921	593.27
691.366	629.92
691.811	658.42
692.255	713.32
692.7	867.42
693.145	1242.42
693.589	1922.72
694.034	2355.67
694.478	2567.37
694.923	2408.02
695.367	3529.22
695.812	2068.57
696.256	828.77
696.701	588.37
697.145	539.67
697.59	518.47
698.034	514.27
698.478	505.97
698.922	507.57
699.367	526.22
699.811	552.87
700.255	606.42
700.699	668.07
701.143	729.22
701.588	772.67
702.032	824.62
702.476	846.47
702.92	881.82
703.364	1135.02
703.808	1772.07
704.252	2254.07
704.696	2457.92
705.14	2367.22
705.584	3345.77
706.027	1792.67
706.471	862.62
706.915	622.72
707.359	546.52
707.803	508.72
708.246	490.42
708.69	493.72
709.134	485.22
709.577	482.72
710.021	491.27
710.465	488.37
710.908	483.47
711.352	505.37
711.795	560.62
712.239	611.47
712.682	627.02
713.126	611.67
713.569	700.17
714.012	555.22
714.456	482.27
714.899	450.17
715.342	427.82
715.786	415.47
716.229	402.67
716.672	393.02
717.115	396.72
717.558	403.42
718.002	409.77
718.445	434.27
718.888	462.92
719.331	466.77
719.774	484.37
720.217	472.47
720.66	438.07
721.103	410.92
721.546	389.17
721.989	374.47
722.432	370.57
722.874	366.67
723.317	372.27
723.76	406.97
724.203	499.92
724.645	681.77
725.088	834.87
725.531	832.57
725.974	930.12
726.416	832.97
726.859	482.27
727.301	390.52
727.744	371.82
728.187	370.27
728.629	379.67
729.071	402.92
729.514	422.17
729.956	444.97
730.399	454.87
730.841	452.17
731.283	439.77
731.726	424.42
732.168	426.62
732.61	451.57
733.053	491.52
733.495	552.77
733.937	614.32
734.379	726.97
734.821	924.82
735.263	1464.67
735.705	2641.17
736.148	3989.97
736.59	4136.22
737.032	4645.02
737.474	3781.97
737.916	1398.92
738.357	706.87
738.799	532.42
739.241	486.67
739.683	483.17
740.125	496.02
740.567	507.27
741.008	540.67
741.45	560.87
741.892	589.62
742.334	591.52
742.775	604.12
743.217	571.62
743.658	471.42
744.1	478.52
744.542	546.17
744.983	569.42
745.425	611.52
745.866	603.57
746.307	499.17
746.749	529.37
747.19	774.77
747.632	1538.07
748.073	2902.22
748.514	4137.42
748.956	5636.72
749.397	6680.32
749.838	4578.72
750.279	4497.27
750.72	2255.42
751.162	912.32
