Data from MSPlasma+Separation6_Subt14_10-12-55-942.txt Node
Date: Fri Jul 21 10:12:55 EDT 2017
User: Ender
Spectrometer: HR+D1039
Trigger mode: 0
Integration Time (sec): 6.430000E-3
Scans to average: 20
Electric dark correction enabled: true
Nonlinearity correction enabled: false
Boxcar width: 0
XAxis mode: Wavelengths
Number of Pixels in Spectrum: 2048
>>>>>Begin Spectral Data<<<<<
187.836	1.24
188.309	1.24
188.782	1.24
189.255	-0.41
189.728	3.99
190.201	-0.76
190.674	0.09
191.147	-1.26
191.619	1.19
192.092	-1.96
192.565	-2.86
193.038	4.04
193.511	-0.51
193.984	-4.56
194.456	-0.71
194.929	0.49
195.402	-0.26
195.874	2.29
196.347	3.54
196.82	1.74
197.292	-2.11
197.765	1.79
198.237	-3.51
198.71	-2.11
199.182	4.09
199.655	2.69
200.127	1.74
200.6	-2.46
201.072	0.09
201.544	-3.46
202.017	3.34
202.489	1.79
202.961	-2.61
203.433	-4.96
203.906	-4.36
204.378	0.14
204.85	-0.46
205.322	-0.76
205.794	0.94
206.266	-3.21
206.739	2.54
207.211	-1.01
207.683	-2.56
208.155	5.84
208.627	-0.21
209.099	3.89
209.57	2.34
210.042	1.99
210.514	2.69
210.986	-0.76
211.458	-2.76
211.93	-0.41
212.402	3.54
212.873	-1.06
213.345	-4.76
213.817	5.39
214.288	-1.31
214.76	2.49
215.232	2.89
215.703	0.24
216.175	-3.81
216.646	3.54
217.118	1.79
217.589	-2.51
218.061	2.64
218.532	-0.71
219.004	-0.16
219.475	0.04
219.946	3.99
220.418	5.54
220.889	-0.26
221.36	5.04
221.832	4.94
222.303	5.84
222.774	4.34
223.245	0.04
223.717	-1.66
224.188	5.29
224.659	3.64
225.13	0.09
225.601	1.69
226.072	3.79
226.543	6.79
227.014	3.39
227.485	8.34
227.956	4.44
228.427	9.84
228.898	3.44
229.369	2.14
229.839	3.49
230.31	4.69
230.781	5.44
231.252	4.54
231.722	4.09
232.193	0.89
232.664	6.19
233.135	4.29
233.605	1.94
234.076	14.34
234.546	7.04
235.017	8.69
235.487	7.74
235.958	9.39
236.428	12.49
236.899	9.44
237.369	14.09
237.84	9.59
238.31	9.39
238.78	6.64
239.251	8.49
239.721	4.59
240.191	9.29
240.662	13.44
241.132	7.64
241.602	12.64
242.072	11.79
242.542	8.69
243.013	6.24
243.483	17.84
243.953	9.74
244.423	16.24
244.893	10.09
245.363	15.99
245.833	8.59
246.303	15.39
246.773	17.99
247.243	12.44
247.712	17.79
248.182	13.49
248.652	16.79
249.122	15.34
249.592	18.79
250.061	14.59
250.531	15.49
251.001	15.74
251.471	20.74
251.94	17.94
252.41	20.94
252.879	20.79
253.349	22.64
253.818	15.49
254.288	24.09
254.757	19.94
255.227	23.89
255.696	18.14
256.166	21.49
256.635	30.19
257.105	23.64
257.574	20.99
258.043	21.24
258.513	27.59
258.982	23.59
259.451	26.44
259.92	19.09
260.389	24.79
260.859	22.49
261.328	29.04
261.797	24.64
262.266	31.09
262.735	33.59
263.204	24.99
263.673	30.04
264.142	21.14
264.611	30.89
265.08	32.49
265.549	26.44
266.018	28.89
266.487	32.19
266.955	30.19
267.424	33.04
267.893	36.29
268.362	32.69
268.83	29.74
269.299	32.14
269.768	35.34
270.236	35.64
270.705	39.09
271.174	30.84
271.642	30.69
272.111	34.84
272.579	31.99
273.048	35.19
273.516	35.69
273.985	37.14
274.453	34.04
274.922	37.99
275.39	34.44
275.858	38.84
276.327	37.64
276.795	38.89
277.263	41.14
277.731	35.14
278.2	44.34
278.668	36.89
279.136	43.79
279.604	39.84
280.072	36.24
280.54	41.79
281.008	44.84
281.477	43.69
281.945	42.54
282.413	44.64
282.881	45.84
283.348	43.79
283.816	47.24
284.284	45.94
284.752	49.24
285.22	48.49
285.688	48.49
286.156	51.69
286.623	54.69
287.091	48.89
287.559	56.44
288.026	54.84
288.494	55.84
288.962	58.19
289.429	52.04
289.897	56.49
290.364	49.19
290.832	57.99
291.3	54.44
291.767	51.84
292.234	58.79
292.702	59.04
293.169	56.79
293.637	61.89
294.104	63.24
294.571	57.89
295.039	58.19
295.506	57.29
295.973	65.94
296.44	62.34
296.908	62.14
297.375	59.84
297.842	65.59
298.309	59.29
298.776	62.84
299.243	65.64
299.71	66.59
300.177	61.24
300.644	65.89
301.111	64.74
301.578	66.19
302.045	64.34
302.512	69.59
302.979	72.24
303.446	74.19
303.913	74.44
304.379	75.44
304.846	73.79
305.313	75.74
305.78	79.24
306.246	78.44
306.713	80.14
307.18	83.29
307.646	82.69
308.113	78.14
308.579	92.44
309.046	88.99
309.512	84.79
309.979	89.49
310.445	92.24
310.912	85.14
311.378	91.49
311.845	90.39
312.311	90.54
312.777	93.69
313.244	94.34
313.71	97.54
314.176	101.49
314.642	98.04
315.109	96.69
315.575	95.74
316.041	97.89
316.507	99.89
316.973	103.74
317.439	101.04
317.905	105.94
318.371	103.19
318.837	101.34
319.303	103.34
319.769	100.29
320.235	108.29
320.701	108.74
321.167	106.39
321.633	103.99
322.099	104.84
322.564	111.29
323.03	109.04
323.496	110.84
323.962	114.19
324.427	116.14
324.893	113.74
325.359	115.64
325.824	114.54
326.29	125.29
326.755	116.24
327.221	122.54
327.686	123.64
328.152	123.29
328.617	126.44
329.083	122.44
329.548	126.19
330.014	129.09
330.479	135.44
330.944	131.34
331.41	137.14
331.875	133.29
332.34	132.19
332.805	133.29
333.271	133.74
333.736	135.59
334.201	135.24
334.666	146.79
335.131	138.94
335.596	143.99
336.061	141.34
336.526	138.69
336.991	132.94
337.456	138.79
337.921	132.74
338.386	135.69
338.851	132.09
339.316	140.99
339.781	139.79
340.246	138.99
340.711	145.64
341.175	145.79
341.64	154.44
342.105	150.29
342.569	160.39
343.034	153.54
343.499	156.09
343.963	162.99
344.428	164.29
344.893	164.29
345.357	166.19
345.822	168.44
346.286	168.89
346.751	168.89
347.215	172.84
347.679	182.24
348.144	187.19
348.608	192.04
349.073	190.64
349.537	199.59
350.001	195.34
350.465	194.69
350.93	196.14
351.394	203.69
351.858	201.19
352.322	202.84
352.786	205.19
353.25	207.29
353.715	206.09
354.179	219.84
354.643	222.39
355.107	221.04
355.571	219.29
356.035	217.09
356.498	219.09
356.962	213.84
357.426	216.59
357.89	213.34
358.354	212.34
358.818	204.19
359.281	212.19
359.745	210.19
360.209	213.74
360.673	207.89
361.136	212.89
361.6	216.89
362.064	216.59
362.527	229.89
362.991	226.94
363.454	224.49
363.918	232.84
364.381	229.99
364.845	226.24
365.308	226.14
365.772	230.39
366.235	232.04
366.698	226.14
367.162	225.94
367.625	236.44
368.088	240.74
368.552	238.39
369.015	234.24
369.478	237.34
369.941	240.64
370.404	246.94
370.867	238.19
371.331	247.64
371.794	248.44
372.257	250.69
372.72	247.84
373.183	253.09
373.646	252.84
374.109	253.39
374.572	251.04
375.035	256.54
375.497	256.19
375.96	261.69
376.423	266.24
376.886	270.39
377.349	276.09
377.811	273.99
378.274	275.84
378.737	269.14
379.199	270.54
379.662	278.34
380.125	284.14
380.587	285.14
381.05	291.39
381.512	294.09
381.975	295.54
382.437	307.24
382.9	304.54
383.362	299.49
383.825	312.74
384.287	312.29
384.75	306.44
385.212	306.89
385.674	318.04
386.136	323.44
386.599	315.34
387.061	316.34
387.523	317.04
387.985	319.74
388.447	324.39
388.91	323.74
389.372	323.89
389.834	325.39
390.296	314.19
390.758	324.14
391.22	322.84
391.682	322.99
392.144	321.79
392.606	327.99
393.068	338.19
393.529	357.59
393.991	366.84
394.453	344.79
394.915	331.09
395.377	325.49
395.838	329.64
396.3	325.99
396.762	336.54
397.224	337.19
397.685	332.39
398.147	342.54
398.608	341.89
399.07	346.84
399.531	346.74
399.993	356.59
400.454	357.99
400.916	358.29
401.377	368.59
401.839	374.09
402.3	374.59
402.762	388.29
403.223	417.39
403.684	416.04
404.145	393.74
404.607	381.44
405.068	371.74
405.529	382.89
405.99	382.64
406.451	379.89
406.913	378.24
407.374	380.74
407.835	383.59
408.296	391.29
408.757	391.14
409.218	402.09
409.679	407.69
410.14	408.74
410.601	426.94
411.062	430.64
411.522	435.24
411.983	439.29
412.444	447.14
412.905	463.89
413.366	482.09
413.826	508.44
414.287	587.44
414.748	712.84
415.208	728.74
415.669	596.44
416.13	539.89
416.59	530.34
417.051	552.09
417.511	580.49
417.972	623.34
418.432	687.59
418.893	764.64
419.353	726.74
419.814	538.24
420.274	476.79
420.734	470.64
421.195	482.84
421.655	482.54
422.115	494.29
422.576	485.94
423.036	492.39
423.496	508.69
423.956	526.19
424.416	561.04
424.876	636.89
425.336	633.79
425.797	608.59
426.257	601.04
426.717	549.69
427.177	499.04
427.637	484.99
428.097	507.64
428.556	517.29
429.016	561.24
429.476	545.39
429.936	511.74
430.396	500.34
430.856	511.69
431.315	518.79
431.775	554.84
432.235	610.69
432.694	626.49
433.154	573.29
433.614	558.64
434.073	544.24
434.533	498.44
434.993	489.29
435.452	502.39
435.912	497.49
436.371	502.99
436.83	509.84
437.29	506.04
437.749	504.04
438.209	503.94
438.668	513.49
439.127	523.84
439.587	525.19
440.046	513.19
440.505	530.34
440.964	533.04
441.424	553.74
441.883	561.24
442.342	542.19
442.801	516.94
443.26	535.59
443.719	529.69
444.178	524.99
444.637	533.29
445.096	535.24
445.555	546.99
446.014	541.99
446.473	535.29
446.932	539.89
447.391	554.59
447.849	564.69
448.308	550.54
448.767	560.54
449.226	566.34
449.685	579.44
450.143	602.59
450.602	606.19
451.061	569.34
451.519	569.14
451.978	558.24
452.436	553.64
452.895	557.84
453.353	558.69
453.812	553.24
454.27	561.09
454.729	559.79
455.187	565.49
455.646	566.54
456.104	563.09
456.562	574.04
457.021	581.64
457.479	557.49
457.937	570.99
458.395	595.29
458.854	585.04
459.312	573.09
459.77	575.14
460.228	582.14
460.686	592.99
461.144	601.19
461.602	585.39
462.06	590.89
462.518	601.44
462.976	596.44
463.434	615.29
463.892	614.14
464.35	630.44
464.808	632.99
465.266	640.59
465.724	650.44
466.181	655.24
466.639	647.04
467.097	674.79
467.555	704.79
468.012	694.09
468.47	695.84
468.928	717.44
469.385	738.09
469.843	734.04
470.3	735.99
470.758	753.24
471.215	751.14
471.673	782.49
472.13	792.49
472.588	801.49
473.045	800.39
473.503	811.69
473.96	847.24
474.417	852.29
474.875	878.94
475.332	895.84
475.789	904.69
476.246	914.24
476.704	943.39
477.161	942.34
477.618	942.34
478.075	967.44
478.532	987.59
478.989	1012.24
479.446	1062.24
479.903	1057.69
480.36	1077.44
480.817	1072.99
481.274	1079.99
481.731	1117.44
482.188	1135.69
482.645	1163.54
483.102	1179.24
483.558	1208.54
484.015	1230.89
484.472	1227.24
484.929	1228.29
485.385	1236.34
485.842	1245.24
486.299	1251.69
486.755	1240.94
487.212	1231.69
487.668	1194.09
488.125	1193.49
488.582	1173.29
489.038	1179.44
489.494	1201.84
489.951	1197.29
490.407	1201.14
490.864	1197.39
491.32	1201.09
491.776	1202.99
492.233	1223.49
492.689	1214.94
493.145	1209.99
493.602	1197.09
494.058	1214.14
494.514	1237.19
494.97	1242.24
495.426	1257.14
495.882	1264.34
496.338	1264.84
496.794	1278.74
497.251	1283.84
497.707	1294.24
498.163	1298.54
498.618	1298.64
499.074	1304.29
499.53	1307.29
499.986	1319.69
500.442	1311.49
500.898	1304.24
501.354	1321.24
501.809	1320.99
502.265	1316.59
502.721	1323.89
503.177	1330.99
503.632	1337.44
504.088	1354.34
504.543	1366.19
504.999	1378.49
505.455	1373.34
505.91	1354.64
506.366	1363.39
506.821	1368.59
507.277	1356.04
507.732	1368.59
508.187	1368.39
508.643	1376.84
509.098	1381.99
509.553	1392.04
510.009	1402.39
510.464	1438.14
510.919	1443.74
511.375	1471.54
511.83	1484.39
512.285	1500.89
512.74	1537.44
513.195	1558.19
513.65	1586.49
514.105	1618.79
514.56	1616.69
515.015	1648.49
515.47	1672.39
515.925	1643.39
516.38	1633.99
516.835	1650.94
517.29	1631.79
517.745	1629.04
518.2	1616.39
518.655	1574.34
519.109	1554.59
519.564	1529.19
520.019	1512.59
520.474	1504.49
520.928	1493.44
521.383	1483.44
521.838	1476.09
522.292	1472.04
522.747	1455.19
523.201	1458.49
523.656	1432.39
524.11	1420.54
524.565	1424.09
525.019	1427.39
525.474	1416.94
525.928	1408.64
526.382	1408.59
526.837	1406.94
527.291	1417.34
527.745	1398.34
528.2	1403.59
528.654	1384.09
529.108	1390.19
529.562	1394.74
530.016	1390.59
530.47	1388.44
530.925	1386.09
531.379	1382.34
531.833	1405.34
532.287	1400.99
532.741	1389.19
533.195	1390.99
533.649	1396.44
534.103	1389.69
534.556	1383.69
535.01	1401.69
535.464	1390.59
535.918	1387.99
536.372	1405.74
536.826	1394.69
537.279	1386.69
537.733	1381.89
538.187	1395.64
538.64	1390.64
539.094	1406.94
539.548	1423.59
540.001	1419.84
540.455	1429.04
540.908	1436.34
541.362	1450.29
541.815	1447.84
542.269	1489.24
542.722	1482.64
543.175	1504.24
543.629	1505.64
544.082	1527.34
544.536	1543.49
544.989	1537.69
545.442	1564.54
545.895	1566.54
546.349	1549.09
546.802	1566.54
547.255	1566.29
547.708	1576.29
548.161	1592.14
548.614	1603.14
549.067	1609.14
549.52	1593.79
549.973	1568.49
550.426	1560.64
550.879	1549.34
551.332	1537.24
551.785	1554.54
552.238	1577.89
552.691	1572.44
553.144	1599.69
553.596	1633.44
554.049	1649.04
554.502	1690.14
554.955	1722.89
555.407	1753.09
555.86	1716.79
556.313	1691.99
556.765	1680.09
557.218	1665.44
557.67	1661.44
558.123	1633.19
558.576	1616.99
559.028	1627.14
559.48	1646.49
559.933	1639.79
560.385	1582.34
560.838	1527.14
561.29	1472.74
561.742	1462.89
562.195	1439.94
562.647	1426.24
563.099	1425.74
563.551	1415.44
564.004	1428.69
564.456	1421.89
564.908	1375.54
565.36	1346.79
565.812	1325.14
566.264	1309.14
566.716	1288.74
567.168	1267.14
567.62	1270.69
568.072	1263.44
568.524	1246.49
568.976	1251.24
569.428	1232.74
569.88	1228.09
570.332	1243.29
570.784	1242.34
571.235	1239.94
571.687	1251.49
572.139	1257.24
572.59	1266.59
573.042	1278.04
573.494	1268.34
573.945	1255.34
574.397	1229.19
574.849	1218.44
575.3	1222.69
575.752	1197.24
576.203	1187.39
576.655	1196.74
577.106	1178.39
577.557	1172.49
578.009	1174.09
578.46	1166.44
578.912	1154.79
579.363	1171.94
579.814	1170.74
580.265	1164.89
580.717	1167.24
581.168	1164.89
581.619	1167.54
582.07	1182.34
582.521	1180.54
582.972	1174.99
583.423	1176.19
583.875	1175.54
584.326	1193.29
584.777	1208.49
585.227	1230.69
585.678	1236.39
586.129	1246.44
586.58	1271.69
587.031	1292.89
587.482	1329.79
587.933	1345.09
588.384	1347.99
588.834	1334.89
589.285	1324.79
589.736	1329.04
590.186	1330.99
590.637	1316.74
591.088	1283.84
591.538	1260.69
591.989	1233.74
592.439	1227.34
592.89	1209.24
593.34	1197.54
593.791	1192.04
594.241	1183.14
594.692	1170.79
595.142	1185.74
595.593	1175.54
596.043	1188.99
596.493	1195.04
596.943	1195.09
597.394	1227.54
597.844	1244.19
598.294	1272.69
598.744	1317.89
599.195	1388.19
599.645	1474.44
600.095	1557.54
600.545	1633.19
600.995	1706.79
601.445	1785.64
601.895	1891.34
602.345	1944.99
602.795	1923.89
603.245	1835.44
603.695	1712.89
604.145	1605.84
604.594	1522.09
605.044	1436.14
605.494	1334.89
605.944	1263.04
606.393	1228.24
606.843	1214.64
607.293	1213.24
607.743	1201.29
608.192	1209.64
608.642	1214.69
609.091	1212.79
609.541	1214.04
609.99	1216.54
610.44	1177.54
610.889	1173.29
611.339	1158.29
611.788	1144.44
612.238	1150.54
612.687	1145.94
613.136	1150.09
613.586	1167.29
614.035	1166.44
614.484	1169.89
614.933	1172.84
615.383	1143.94
615.832	1121.99
616.281	1111.99
616.73	1091.54
617.179	1052.64
617.628	1038.89
618.077	1024.74
618.526	1007.19
618.975	1006.14
619.424	976.99
619.873	980.04
620.322	971.14
620.771	969.09
621.22	954.74
621.669	930.19
622.118	927.29
622.567	909.14
623.015	890.19
623.464	897.54
623.913	874.64
624.361	885.24
624.81	877.69
625.259	885.74
625.707	875.59
626.156	885.14
626.604	898.99
627.053	908.99
627.501	895.89
627.95	912.44
628.398	917.64
628.847	909.49
629.295	905.84
629.744	901.49
630.192	884.09
630.64	864.54
631.089	851.79
631.537	824.64
631.985	812.29
632.433	807.69
632.881	792.59
633.33	804.59
633.778	800.99
634.226	805.09
634.674	816.64
635.122	818.64
635.57	831.19
636.018	847.19
636.466	846.19
636.914	837.24
637.362	852.24
637.81	864.49
638.258	899.29
638.705	905.49
639.153	938.44
639.601	946.39
640.049	966.49
640.497	990.29
640.944	1022.04
641.392	955.89
641.84	887.54
642.287	834.49
642.735	802.04
643.182	792.44
643.63	782.74
644.078	773.54
644.525	767.39
644.973	782.19
645.42	786.79
645.867	784.19
646.315	777.49
646.762	788.24
647.21	784.09
647.657	788.64
648.104	774.04
648.551	755.69
648.999	745.69
649.446	741.94
649.893	741.94
650.34	746.59
650.787	766.69
651.234	796.74
651.682	857.54
652.129	941.09
652.576	1079.84
653.023	1227.89
653.47	1318.74
653.917	1386.29
654.363	1429.74
654.81	1496.69
655.257	1532.54
655.704	1216.44
656.151	946.84
656.598	833.94
657.044	768.34
657.491	745.84
657.938	727.54
658.385	718.14
658.831	712.09
659.278	708.99
659.724	697.59
660.171	697.89
660.618	675.19
661.064	660.99
661.511	667.94
661.957	666.74
662.404	678.19
662.85	676.99
663.296	685.59
663.743	690.29
664.189	691.14
664.635	697.19
665.082	687.24
665.528	695.09
665.974	670.14
666.42	667.99
666.867	662.39
667.313	629.99
667.759	629.49
668.205	627.94
668.651	631.34
669.097	640.19
669.543	635.49
669.989	642.79
670.435	648.79
670.881	654.74
671.327	693.09
671.773	741.49
672.219	802.94
672.665	859.04
673.11	903.19
673.556	926.49
674.002	961.59
674.448	983.89
674.893	828.44
675.339	697.79
675.785	647.44
676.23	610.24
676.676	586.89
677.122	573.89
677.567	561.49
678.013	535.89
678.458	534.44
678.904	536.29
679.349	525.59
679.794	527.19
680.24	528.09
680.685	516.19
681.131	521.74
681.576	521.69
682.021	529.04
682.466	533.44
682.912	538.19
683.357	561.89
683.802	618.34
684.247	688.19
684.692	736.29
685.137	772.49
685.583	795.09
686.028	851.49
686.473	799.79
686.918	679.24
687.363	616.19
687.807	576.34
688.252	548.44
688.697	530.99
689.142	508.99
689.587	517.49
690.032	523.89
690.477	544.89
690.921	573.39
691.366	612.34
691.811	636.39
692.255	695.79
692.7	846.49
693.145	1215.94
693.589	1876.69
694.034	2278.79
694.478	2487.29
694.923	2314.19
695.367	3389.99
695.812	1998.49
696.256	805.14
696.701	574.74
697.145	527.19
697.59	509.49
698.034	500.19
698.478	498.19
698.922	503.49
699.367	513.24
699.811	540.04
700.255	589.44
700.699	651.54
701.143	710.69
701.588	763.14
702.032	793.49
702.476	817.59
702.92	851.74
703.364	1116.79
703.808	1721.74
704.252	2174.64
704.696	2359.34
705.14	2286.44
705.584	3197.59
706.027	1726.44
706.471	841.04
706.915	613.69
707.359	541.24
707.803	502.79
708.246	477.19
708.69	473.79
709.134	467.99
709.577	474.04
710.021	477.89
710.465	472.09
710.908	467.89
711.352	490.74
711.795	541.29
712.239	593.24
712.682	606.24
713.126	603.54
713.569	682.04
714.012	544.69
714.456	462.59
714.899	440.59
715.342	418.19
715.786	407.29
716.229	387.64
716.672	379.04
717.115	385.39
717.558	383.49
718.002	400.89
718.445	415.54
718.888	445.24
719.331	453.44
719.774	468.69
720.217	456.39
720.66	427.29
721.103	398.54
721.546	379.39
721.989	368.29
722.432	358.44
722.874	358.34
723.317	365.89
723.76	401.39
724.203	491.79
724.645	674.09
725.088	810.14
725.531	802.74
725.974	905.09
726.416	794.79
726.859	469.79
727.301	384.54
727.744	362.39
728.187	366.84
728.629	372.19
729.071	396.24
729.514	412.94
729.956	427.69
730.399	441.94
730.841	441.19
731.283	422.54
731.726	413.19
732.168	416.79
732.61	440.44
733.053	477.09
733.495	531.24
733.937	599.09
734.379	711.29
734.821	893.94
735.263	1427.99
735.705	2565.79
736.148	3876.89
736.59	3971.94
737.032	4451.54
737.474	3616.19
737.916	1344.69
738.357	685.34
738.799	519.54
739.241	483.69
739.683	476.89
740.125	487.29
740.567	491.54
741.008	523.64
741.45	553.14
741.892	573.49
742.334	579.84
742.775	585.99
743.217	555.09
743.658	461.29
744.1	471.69
744.542	536.54
744.983	559.34
745.425	600.24
745.866	586.64
746.307	490.99
746.749	523.34
747.19	755.14
747.632	1493.94
748.073	2807.84
748.514	3967.59
748.956	5450.54
749.397	6432.29
749.838	4399.34
750.279	4327.09
750.72	2160.29
751.162	893.14
751.603	506.59
752.044	395.44
