Data from MSPlasma+Separation6_Subt14_10-12-27-700.txt Node
Date: Fri Jul 21 10:12:27 EDT 2017
User: Ender
Spectrometer: HR+D1039
Trigger mode: 0
Integration Time (sec): 6.430000E-3
Scans to average: 20
Electric dark correction enabled: true
Nonlinearity correction enabled: false
Boxcar width: 0
XAxis mode: Wavelengths
Number of Pixels in Spectrum: 2048
>>>>>Begin Spectral Data<<<<<
187.836	-4.6
188.309	-4.6
188.782	-4.6
189.255	2.65
189.728	2.2
190.201	0.5
190.674	-1.2
191.147	-1.85
191.619	2
192.092	2.8
192.565	-0.35
193.038	3.15
193.511	2.25
193.984	0.4
194.456	-3.65
194.929	-0.9
195.402	-3.25
195.874	-0.15
196.347	4.3
196.82	3.3
197.292	-1.15
197.765	-1.75
198.237	1
198.71	-4.9
199.182	3.55
199.655	1.65
200.127	3.45
200.6	1.6
201.072	4.5
201.544	-1.25
202.017	2.7
202.489	1.8
202.961	-2.2
203.433	-1.3
203.906	-1.8
204.378	0.55
204.85	-1.85
205.322	-1.2
205.794	1.7
206.266	-0.3
206.739	1.7
207.211	-1.4
207.683	-0.05
208.155	1.95
208.627	-0.85
209.099	3.45
209.57	6.35
210.042	-0.85
210.514	2.3
210.986	1.35
211.458	-1.35
211.93	0
212.402	2.2
212.873	-4.5
213.345	-3.25
213.817	1.4
214.288	-2.45
214.76	4.25
215.232	1.05
215.703	-2.35
216.175	3.95
216.646	-1.85
217.118	4
217.589	-4.3
218.061	1.25
218.532	-5.55
219.004	8.65
219.475	-3.65
219.946	1.75
220.418	6.3
220.889	2.6
221.36	4.3
221.832	3.5
222.303	4.8
222.774	4.35
223.245	1.35
223.717	2
224.188	4.2
224.659	2.75
225.13	-1.25
225.601	0.7
226.072	3.2
226.543	5.9
227.014	4.45
227.485	6.05
227.956	5.2
228.427	5.65
228.898	5.9
229.369	4.85
229.839	5.1
230.31	1.9
230.781	6.8
231.252	9.7
231.722	6.7
232.193	4.6
232.664	6.35
233.135	3.45
233.605	5.05
234.076	9.05
234.546	6.3
235.017	13.6
235.487	9
235.958	6.05
236.428	14.1
236.899	11.5
237.369	16.95
237.84	12.45
238.31	15.7
238.78	4.6
239.251	7
239.721	10.8
240.191	9.5
240.662	12.1
241.132	12.85
241.602	15.3
242.072	11.45
242.542	7.7
243.013	9.5
243.483	16.1
243.953	9.4
244.423	9.8
244.893	10.95
245.363	16.2
245.833	16.45
246.303	9.45
246.773	16.3
247.243	9
247.712	18.65
248.182	19.5
248.652	16.75
249.122	16.65
249.592	17.15
250.061	15.7
250.531	18.85
251.001	20.4
251.471	14.25
251.94	17.7
252.41	18.5
252.879	19.4
253.349	23.4
253.818	16.6
254.288	24.25
254.757	20.1
255.227	22.65
255.696	20.05
256.166	26.8
256.635	24.4
257.105	23.8
257.574	22.7
258.043	24
258.513	27.95
258.982	18.4
259.451	31.5
259.92	20.65
260.389	25.4
260.859	28.35
261.328	29.5
261.797	20.75
262.266	29.15
262.735	32.8
263.204	21.8
263.673	27.95
264.142	28.4
264.611	29.8
265.08	31.25
265.549	28.05
266.018	30.35
266.487	32.7
266.955	33.2
267.424	36.05
267.893	37
268.362	36.05
268.83	31.3
269.299	32.3
269.768	32.3
270.236	36.35
270.705	41.5
271.174	34.05
271.642	32.9
272.111	39.4
272.579	35.7
273.048	30.65
273.516	39.1
273.985	36.65
274.453	37.45
274.922	37.65
275.39	35.75
275.858	35.55
276.327	40.7
276.795	36.8
277.263	40.3
277.731	40.95
278.2	45
278.668	40.45
279.136	45.45
279.604	44.05
280.072	43.05
280.54	45.15
281.008	48.8
281.477	46.25
281.945	38.65
282.413	46.75
282.881	49.6
283.348	42.25
283.816	50.3
284.284	48.75
284.752	52.5
285.22	48.65
285.688	47.25
286.156	52.95
286.623	51.35
287.091	52.05
287.559	55.85
288.026	55.2
288.494	58.35
288.962	55.95
289.429	48.7
289.897	57.85
290.364	49.8
290.832	49.45
291.3	52.7
291.767	59.75
292.234	61.8
292.702	58.45
293.169	59.5
293.637	56.8
294.104	59.15
294.571	60.15
295.039	62.1
295.506	58.5
295.973	65.9
296.44	58.85
296.908	66.35
297.375	66.95
297.842	63.1
298.309	63.2
298.776	63.65
299.243	69.7
299.71	71.7
300.177	66.2
300.644	64.5
301.111	65.85
301.578	71.3
302.045	68.2
302.512	70.15
302.979	66.8
303.446	72.75
303.913	74.95
304.379	79.2
304.846	82.15
305.313	81.9
305.78	83.9
306.246	79.7
306.713	81.55
307.18	85.3
307.646	82.55
308.113	83.65
308.579	89.25
309.046	91.45
309.512	84.9
309.979	94.95
310.445	87.3
310.912	95
311.378	98.25
311.845	101.05
312.311	93.7
312.777	95
313.244	96.7
313.71	100
314.176	102.5
314.642	100.9
315.109	95.6
315.575	100.55
316.041	97.85
316.507	100.7
316.973	110.6
317.439	105.45
317.905	104.7
318.371	104.2
318.837	105.5
319.303	105.6
319.769	107.3
320.235	110.15
320.701	116.7
321.167	107.3
321.633	112.75
322.099	107.9
322.564	115.4
323.03	112.5
323.496	114.2
323.962	120.6
324.427	122.6
324.893	121.35
325.359	125.3
325.824	122.2
326.29	123.6
326.755	123.15
327.221	125.35
327.686	136.55
328.152	129.75
328.617	138.2
329.083	134.75
329.548	138.4
330.014	136.45
330.479	141.25
330.944	138.85
331.41	146.5
331.875	136.95
332.34	140.65
332.805	142.9
333.271	142.45
333.736	148.1
334.201	147.35
334.666	151.85
335.131	148.95
335.596	157.3
336.061	147.6
336.526	150.6
336.991	147.45
337.456	141.9
337.921	147.8
338.386	147.3
338.851	147
339.316	146.65
339.781	150.55
340.246	153.55
340.711	151.05
341.175	155.4
341.64	163.35
342.105	162.25
342.569	172.75
343.034	167.95
343.499	169.8
343.963	174.4
344.428	169.85
344.893	175.75
345.357	177.35
345.822	179.85
346.286	188.05
346.751	188.9
347.215	188.8
347.679	192.45
348.144	204.65
348.608	201.75
349.073	204.2
349.537	211.25
350.001	212.35
350.465	206.2
350.93	208.95
351.394	212.65
351.858	212.3
352.322	220.1
352.786	215.6
353.25	221.8
353.715	224.05
354.179	237.15
354.643	238.7
355.107	243.7
355.571	240.1
356.035	241.05
356.498	236.95
356.962	232.2
357.426	233.2
357.89	227.25
358.354	229.6
358.818	221.75
359.281	225.5
359.745	233.15
360.209	229.95
360.673	233.75
361.136	228.25
361.6	234.55
362.064	235.35
362.527	248.35
362.991	242.1
363.454	240.75
363.918	251.2
364.381	249
364.845	248.55
365.308	245.35
365.772	248.2
366.235	252.65
366.698	248
367.162	246.1
367.625	254.75
368.088	257.75
368.552	255.45
369.015	255.55
369.478	260.6
369.941	262.4
370.404	265.6
370.867	259.9
371.331	263.85
371.794	269.85
372.257	271.7
372.72	267
373.183	272.55
373.646	274.95
374.109	269.25
374.572	276.95
375.035	279
375.497	279
375.96	284.9
376.423	289.8
376.886	294.95
377.349	298.4
377.811	293.95
378.274	303.25
378.737	298.75
379.199	301.3
379.662	299
380.125	306.1
380.587	310
381.05	313.7
381.512	321.25
381.975	328.55
382.437	333.3
382.9	330.2
383.362	332.95
383.825	336.25
384.287	332.5
384.75	334.15
385.212	342.55
385.674	348.8
386.136	342.2
386.599	339.55
387.061	336.2
387.523	340.1
387.985	345.8
388.447	356.45
388.91	350.8
389.372	354.45
389.834	356.05
390.296	343.65
390.758	351.05
391.22	347.5
391.682	349.4
392.144	352
392.606	356.7
393.068	373.65
393.529	389.95
393.991	394.75
394.453	375.7
394.915	362.7
395.377	353.35
395.838	358.15
396.3	357.7
396.762	365.65
397.224	366.15
397.685	361.3
398.147	367.5
398.608	370.8
399.07	384.25
399.531	381.35
399.993	387.15
400.454	391.9
400.916	388.75
401.377	402.7
401.839	401.7
402.3	406.7
402.762	424.3
403.223	452.8
403.684	448.3
404.145	432.25
404.607	420.2
405.068	405.95
405.529	403.75
405.99	415.25
406.451	413.8
406.913	409.6
407.374	413.4
407.835	412.5
408.296	425.5
408.757	424.9
409.218	432.7
409.679	441.65
410.14	446.15
410.601	466.85
411.062	465.95
411.522	472.7
411.983	476.35
412.444	486.7
412.905	496.55
413.366	516
413.826	551.05
414.287	627.15
414.748	769.1
415.208	785
415.669	640
416.13	576.55
416.59	568.85
417.051	601.15
417.511	634.3
417.972	691.25
418.432	738.05
418.893	837.2
419.353	798.65
419.814	589.7
420.274	520.95
420.734	510
421.195	525.3
421.655	519.9
422.115	530.6
422.576	525.25
423.036	527.15
423.496	548.1
423.956	568.65
424.416	608.65
424.876	688.05
425.336	677.8
425.797	662.15
426.257	652.2
426.717	593.8
427.177	529.25
427.637	526.6
428.097	541.1
428.556	553.4
429.016	590.75
429.476	585.9
429.936	561.35
430.396	547.2
430.856	552.95
431.315	562.5
431.775	597
432.235	661.65
432.694	671.45
433.154	610.35
433.614	596.55
434.073	587.05
434.533	542.5
434.993	529.1
435.452	544.95
435.912	535.25
436.371	544.4
436.83	545.9
437.29	549.95
437.749	542.1
438.209	545.15
438.668	560.15
439.127	563.8
439.587	558.6
440.046	550.45
440.505	563.65
440.964	567.1
441.424	584
441.883	605.95
442.342	579.85
442.801	557.8
443.26	569.3
443.719	561.15
444.178	563.6
444.637	573.8
445.096	577.65
445.555	588.6
446.014	586.15
446.473	580.6
446.932	585.35
447.391	593.15
447.849	605.05
448.308	593.75
448.767	596.65
449.226	611.75
449.685	615.9
450.143	651.15
450.602	638.8
451.061	608.05
451.519	601.8
451.978	591.3
452.436	588.7
452.895	597.25
453.353	598.25
453.812	583.75
454.27	595.05
454.729	595.8
455.187	604.6
455.646	606.2
456.104	607.4
456.562	614.6
457.021	616.9
457.479	587.7
457.937	614.05
458.395	635.7
458.854	627
459.312	614.5
459.77	620.35
460.228	632.65
460.686	625.4
461.144	633.65
461.602	625.6
462.06	630.1
462.518	645.2
462.976	641.15
463.434	649.3
463.892	656.6
464.35	662.5
464.808	669.55
465.266	680.05
465.724	691.6
466.181	688.15
466.639	681.55
467.097	708
467.555	732.95
468.012	724.35
468.47	729.1
468.928	745.3
469.385	775.3
469.843	780.55
470.3	768.05
470.758	800.6
471.215	806.9
471.673	804.6
472.13	844.8
472.588	850.65
473.045	847.55
473.503	864.15
473.96	897.85
474.417	897.5
474.875	921.95
475.332	944.15
475.789	949.55
476.246	969.05
476.704	987.15
477.161	989.6
477.618	989.65
478.075	1007.5
478.532	1049.15
478.989	1071.2
479.446	1122.35
479.903	1115.6
480.36	1127.7
480.817	1126.2
481.274	1129.45
481.731	1173.4
482.188	1197.15
482.645	1217.75
483.102	1225.25
483.558	1261.75
484.015	1290.35
484.472	1292.2
484.929	1301.75
485.385	1293.8
485.842	1299.75
486.299	1312.7
486.755	1301.9
487.212	1281.25
487.668	1254.6
488.125	1247.2
488.582	1231.8
489.038	1245.15
489.494	1247.7
489.951	1247.45
490.407	1251.7
490.864	1253.6
491.32	1250.75
491.776	1262.95
492.233	1287.3
492.689	1271.6
493.145	1256.05
493.602	1258.3
494.058	1284.9
494.514	1288.25
494.97	1279.9
495.426	1312.75
495.882	1312.25
496.338	1316.45
496.794	1326.05
497.251	1319.6
497.707	1344.6
498.163	1343.55
498.618	1353.5
499.074	1347.1
499.53	1361.25
499.986	1374.8
500.442	1367.4
500.898	1347.4
501.354	1366.2
501.809	1380.35
502.265	1381.8
502.721	1382.85
503.177	1382.45
503.632	1392
504.088	1408.2
504.543	1412.5
504.999	1426.9
505.455	1421.5
505.91	1410.4
506.366	1410.85
506.821	1406.7
507.277	1405.95
507.732	1417.75
508.187	1415.75
508.643	1432.45
509.098	1426.8
509.553	1441.75
510.009	1462.65
510.464	1488.05
510.919	1490.45
511.375	1518.75
511.83	1535
512.285	1561.05
512.74	1589.4
513.195	1602.85
513.65	1639.15
514.105	1672.35
514.56	1677.25
515.015	1702.95
515.47	1713.6
515.925	1676
516.38	1692.35
516.835	1696.9
517.29	1680.6
517.745	1684.95
518.2	1656.75
518.655	1616.15
519.109	1594.3
519.564	1579
520.019	1556.95
520.474	1544.45
520.928	1537.35
521.383	1529.4
521.838	1519.35
522.292	1510.7
522.747	1498.85
523.201	1487.55
523.656	1474.6
524.11	1470.35
524.565	1462.75
525.019	1469.4
525.474	1463.6
525.928	1448.55
526.382	1459.05
526.837	1449.95
527.291	1449.8
527.745	1447.35
528.2	1441.4
528.654	1426.7
529.108	1425.65
529.562	1432.35
530.016	1427.55
530.47	1426.15
530.925	1432.9
531.379	1425.5
531.833	1431.2
532.287	1441.9
532.741	1431.6
533.195	1427.85
533.649	1416.95
534.103	1424.5
534.556	1412.75
535.01	1419
535.464	1411
535.918	1418.55
536.372	1432.4
536.826	1420.95
537.279	1409.75
537.733	1418.75
538.187	1417.95
538.64	1427.65
539.094	1431
539.548	1448
540.001	1444.55
540.455	1456.85
540.908	1470.15
541.362	1488.85
541.815	1494.5
542.269	1529.5
542.722	1517.45
543.175	1542.75
543.629	1543.5
544.082	1565.55
544.536	1572.25
544.989	1588.65
545.442	1595.2
545.895	1597.2
546.349	1597.05
546.802	1606.2
547.255	1605.35
547.708	1610.9
548.161	1643.5
548.614	1641
549.067	1645.65
549.52	1622.55
549.973	1612.2
550.426	1594.1
550.879	1581.6
551.332	1582.05
551.785	1599.25
552.238	1606.5
552.691	1607.8
553.144	1628
553.596	1655.6
554.049	1689.85
554.502	1724.15
554.955	1761.8
555.407	1791.85
555.86	1765.1
556.313	1729.3
556.765	1711
557.218	1692.5
557.67	1677.35
558.123	1662.05
558.576	1651.9
559.028	1659.65
559.48	1673.35
559.933	1681.2
560.385	1615.9
560.838	1549.15
561.29	1508.15
561.742	1504.5
562.195	1469.85
562.647	1448.85
563.099	1449.05
563.551	1440.75
564.004	1458.8
564.456	1431.95
564.908	1402.65
565.36	1379.85
565.812	1344.05
566.264	1329.5
566.716	1305.35
567.168	1295.15
567.62	1283.6
568.072	1276.25
568.524	1273.25
568.976	1261.55
569.428	1256.6
569.88	1245.8
570.332	1262.3
570.784	1269.95
571.235	1256.55
571.687	1272.85
572.139	1272.05
572.59	1288.5
573.042	1296.55
573.494	1286.9
573.945	1264.15
574.397	1241.45
574.849	1224.95
575.3	1238.25
575.752	1213.35
576.203	1208.95
576.655	1214.6
577.106	1194.9
577.557	1188.25
578.009	1164.05
578.46	1183.2
578.912	1163.5
579.363	1181.9
579.814	1176.85
580.265	1166.75
580.717	1179.05
581.168	1171.3
581.619	1177.55
582.07	1189.5
582.521	1186.65
582.972	1174
583.423	1191.1
583.875	1186.85
584.326	1200.15
584.777	1217.35
585.227	1246.85
585.678	1252.3
586.129	1262.45
586.58	1283.6
587.031	1310.6
587.482	1353.3
587.933	1357.4
588.384	1367.55
588.834	1351.1
589.285	1347.75
589.736	1345.05
590.186	1350.05
590.637	1341.45
591.088	1299.3
591.538	1273.35
591.989	1247.8
592.439	1229.3
592.89	1221.35
593.34	1219.55
593.791	1210.15
594.241	1194.85
594.692	1188.7
595.142	1194.05
595.593	1191.1
596.043	1205.45
596.493	1205.85
596.943	1208.85
597.394	1238.05
597.844	1262.55
598.294	1282.15
598.744	1338.6
599.195	1399.4
599.645	1498.55
600.095	1571.85
600.545	1658.6
600.995	1741.25
601.445	1811.35
601.895	1910.85
602.345	1988.1
602.795	1952.2
603.245	1857.15
603.695	1732.7
604.145	1628.45
604.594	1554.85
605.044	1462.25
605.494	1347.8
605.944	1266.1
606.393	1230.75
606.843	1216.4
607.293	1217.9
607.743	1215
608.192	1225.6
608.642	1226.7
609.091	1226.65
609.541	1227.35
609.99	1226.9
610.44	1192.55
610.889	1180.25
611.339	1158.6
611.788	1146.5
612.238	1149.7
612.687	1157.85
613.136	1173.8
613.586	1183.8
614.035	1184.9
614.484	1187.45
614.933	1183.35
615.383	1170.25
615.832	1129.05
616.281	1113.5
616.73	1095.95
617.179	1070.4
617.628	1045.65
618.077	1026.7
618.526	1013.85
618.975	1001.55
619.424	981.55
619.873	993.35
620.322	975.9
620.771	974.45
621.22	964.7
621.669	940
622.118	933.4
622.567	921.1
623.015	898.15
623.464	897.3
623.913	886.25
624.361	895.3
624.81	880.7
625.259	888.4
625.707	877.35
626.156	889.15
626.604	903.95
627.053	900.25
627.501	903.9
627.95	915.4
628.398	926.7
628.847	905.9
629.295	911.1
629.744	905.85
630.192	892.6
630.64	866.3
631.089	845.85
631.537	823
631.985	812.3
632.433	808.05
632.881	800.35
633.33	815.75
633.778	809
634.226	810.95
634.674	817.85
635.122	822.4
635.57	841.55
636.018	855.3
636.466	850
636.914	841.1
637.362	859.5
637.81	882.6
638.258	908.3
638.705	910.85
639.153	936.25
639.601	945.75
640.049	963.25
640.497	1000.8
640.944	1026.15
641.392	974.65
641.84	892.2
642.287	838.15
642.735	804.1
643.182	786.9
643.63	780.9
644.078	773.2
644.525	775.25
644.973	782.15
645.42	790.8
645.867	784.8
646.315	787.75
646.762	787.95
647.21	781.75
647.657	797.75
648.104	780.6
648.551	749.7
648.999	747.4
649.446	754.75
649.893	739.7
650.34	754
650.787	775.8
651.234	804.7
651.682	869.4
652.129	938.1
652.576	1087.75
653.023	1247.35
653.47	1343.7
653.917	1403.3
654.363	1447.8
654.81	1516.35
655.257	1561.5
655.704	1233.35
656.151	955.05
656.598	829.45
657.044	769.4
657.491	748.2
657.938	733.1
658.385	722.4
658.831	707.8
659.278	713.3
659.724	708.5
660.171	697.4
660.618	679.25
661.064	667.05
661.511	671.15
661.957	668
662.404	673.95
662.85	685.35
663.296	693.6
663.743	692.6
664.189	693.35
664.635	700.6
665.082	692.85
665.528	687.65
665.974	672.45
666.42	667.1
666.867	669.45
667.313	635.15
667.759	626.75
668.205	629.5
668.651	632.25
669.097	636.15
669.543	643.6
669.989	655.4
670.435	651.05
670.881	655.05
671.327	694.3
671.773	740.45
672.219	806.9
672.665	868.95
673.11	910.3
673.556	933
674.002	968.85
674.448	998
674.893	825.2
675.339	706.95
675.785	647.4
676.23	618.7
676.676	590.65
677.122	572.25
677.567	554.75
678.013	539.2
678.458	537.15
678.904	535.9
679.349	530.95
679.794	533.3
680.24	530.65
680.685	515.35
681.131	520.15
681.576	523.4
682.021	524.6
682.466	539.3
682.912	541.9
683.357	570.7
683.802	623.2
684.247	688.05
684.692	739.65
685.137	774.65
685.583	797.55
686.028	856.95
686.473	802.4
686.918	676.35
687.363	620.35
687.807	586.15
688.252	554.85
688.697	527.95
689.142	506.65
689.587	512.9
690.032	524.3
690.477	544.55
690.921	579.8
691.366	612.55
691.811	637.2
692.255	700.8
692.7	849.25
693.145	1216.55
693.589	1890.9
694.034	2293.4
694.478	2513.2
694.923	2348.5
695.367	3431.3
695.812	2035.15
696.256	817.35
696.701	573.65
697.145	526.2
697.59	507.25
698.034	498.8
698.478	499.3
698.922	500.25
699.367	512.8
699.811	543.8
700.255	587.05
700.699	654.45
701.143	717.5
701.588	765.9
702.032	801.2
702.476	826.2
702.92	858.05
703.364	1112.55
703.808	1729.6
704.252	2211.2
704.696	2397
705.14	2317.6
705.584	3248.5
706.027	1755.5
706.471	845.05
706.915	612.75
707.359	540.35
707.803	502.95
708.246	482.2
708.69	487.3
709.134	473.6
709.577	473.2
710.021	484.9
710.465	478.1
710.908	477.65
711.352	487.9
711.795	548.75
712.239	591
712.682	612.9
713.126	603.5
713.569	687.4
714.012	551.15
714.456	469.9
714.899	446.05
715.342	427.35
715.786	405.05
716.229	397.45
716.672	386.95
717.115	381.75
717.558	393.1
718.002	400.8
718.445	414.6
718.888	446.25
719.331	465.95
719.774	471.45
720.217	453.8
720.66	426.85
721.103	400.2
721.546	379.85
721.989	372
722.432	367.65
722.874	364.55
723.317	366.9
723.76	398.5
724.203	488.4
724.645	671.35
725.088	804.9
725.531	811.65
725.974	914.9
726.416	810.45
726.859	475.6
727.301	375.55
727.744	362.85
728.187	360.2
728.629	371.15
729.071	390.85
729.514	409.35
729.956	429.95
730.399	440.25
730.841	435.85
731.283	426.3
731.726	408.1
732.168	416.3
732.61	443.65
733.053	479.85
733.495	531.65
733.937	598.6
734.379	711.85
734.821	900.7
735.263	1432.75
735.705	2572
736.148	3916.3
736.59	4031.75
737.032	4523.65
737.474	3683.65
737.916	1369.15
738.357	681.05
738.799	524.35
739.241	482.4
739.683	480.25
740.125	491.4
740.567	498.35
741.008	531.85
741.45	554.45
741.892	581.95
742.334	590.75
742.775	586.55
743.217	555.55
743.658	464.6
744.1	463.25
744.542	535
744.983	561.45
745.425	600.3
745.866	593.05
746.307	489.9
746.749	521.85
747.19	765.15
747.632	1508.2
748.073	2836.55
748.514	4019.8
748.956	5514
749.397	6545.6
749.838	4473.65
750.279	4394.75
750.72	2192.15
751.162	890.15
751.603	501.65
752.044	397.7
752.485	348.65
752.926	331.15
753.367	315.3
753.808	306.45
754.249	294.1
754.69	297.7
755.131	284.75
755.572	290.1
756.013	290.9
756.453	291.95
756.894	297.9
757.335	297.95
757.776	301.3
758.216	311.05
758.657	331.5
759.098	368.05
759.538	436.5
759.979	643.35
760.42	1307.75
760.86	3336.2
761.301	7195.2
761.741	8853.05
762.182	10663.9
762.622	6724.8
763.063	2299.35
763.503	920.9
763.943	529.85
764.384	415.25
764.824	360.5
765.264	324.05
765.705	314.25
766.145	291.1
766.585	282.4
767.025	273.15
767.465	271.95
767.906	277.6
768.346	293.65
768.786	343.6
769.226	499.45
769.666	1020.65
770.106	2343.9
770.546	3510.9
770.986	4150.7
771.426	3139
771.866	1243.2
