Data from MSPlasma+Separation6_Subt14_10-12-52-857.txt Node
Date: Fri Jul 21 10:12:52 EDT 2017
User: Ender
Spectrometer: HR+D1039
Trigger mode: 0
Integration Time (sec): 6.430000E-3
Scans to average: 20
Electric dark correction enabled: true
Nonlinearity correction enabled: false
Boxcar width: 0
XAxis mode: Wavelengths
Number of Pixels in Spectrum: 2048
>>>>>Begin Spectral Data<<<<<
187.836	2.18
188.309	2.18
188.782	2.18
189.255	1.43
189.728	1.43
190.201	-1.62
190.674	0.43
191.147	-0.62
191.619	-0.07
192.092	-1.17
192.565	-1.92
193.038	2.03
193.511	1.18
193.984	2.63
194.456	-4.97
194.929	-1.37
195.402	-2.67
195.874	3.03
196.347	4.73
196.82	-0.17
197.292	-4.82
197.765	-1.27
198.237	-1.07
198.71	-4.72
199.182	-1.37
199.655	-2.87
200.127	2.58
200.6	1.43
201.072	5.23
201.544	0.83
202.017	0.78
202.489	2.08
202.961	-1.57
203.433	-1.97
203.906	-2.27
204.378	-1.02
204.85	-1.42
205.322	1.43
205.794	4.93
206.266	-6.42
206.739	2.53
207.211	-1.02
207.683	-3.82
208.155	0.28
208.627	0.58
209.099	6.08
209.57	1.58
210.042	3.78
210.514	1.28
210.986	-0.62
211.458	-1.62
211.93	2.98
212.402	-4.62
212.873	-5.17
213.345	-2.07
213.817	2.73
214.288	-2.77
214.76	3.63
215.232	-0.67
215.703	0.33
216.175	3.08
216.646	0.63
217.118	-0.02
217.589	-1.67
218.061	1.83
218.532	-0.52
219.004	4.48
219.475	6.03
219.946	2.63
220.418	5.73
220.889	3.13
221.36	8.23
221.832	6.68
222.303	-0.62
222.774	2.18
223.245	-2.62
223.717	-0.17
224.188	4.18
224.659	5.48
225.13	0.18
225.601	2.03
226.072	4.98
226.543	4.38
227.014	3.93
227.485	4.38
227.956	5.33
228.427	7.88
228.898	6.53
229.369	5.03
229.839	5.18
230.31	8.28
230.781	6.38
231.252	5.03
231.722	7.48
232.193	5.73
232.664	5.28
233.135	4.88
233.605	6.43
234.076	11.23
234.546	7.43
235.017	9.33
235.487	7.78
235.958	6.13
236.428	13.08
236.899	6.63
237.369	12.83
237.84	15.23
238.31	9.48
238.78	8.08
239.251	7.88
239.721	6.28
240.191	7.88
240.662	11.53
241.132	13.53
241.602	13.13
242.072	10.83
242.542	12.08
243.013	9.13
243.483	11.58
243.953	11.53
244.423	12.33
244.893	13.28
245.363	19.28
245.833	12.08
246.303	15.13
246.773	14.68
247.243	16.63
247.712	16.63
248.182	15.03
248.652	17.08
249.122	13.38
249.592	22.63
250.061	16.03
250.531	14.03
251.001	16.63
251.471	18.78
251.94	17.23
252.41	17.93
252.879	20.28
253.349	24.63
253.818	17.98
254.288	28.43
254.757	22.43
255.227	22.03
255.696	22.58
256.166	26.13
256.635	23.88
257.105	21.23
257.574	24.63
258.043	25.03
258.513	29.28
258.982	21.18
259.451	26.03
259.92	20.03
260.389	21.78
260.859	25.98
261.328	27.58
261.797	25.63
262.266	29.23
262.735	27.43
263.204	23.58
263.673	27.58
264.142	23.23
264.611	28.28
265.08	29.38
265.549	23.63
266.018	31.93
266.487	34.83
266.955	30.33
267.424	35.33
267.893	31.83
268.362	35.83
268.83	33.23
269.299	33.33
269.768	35.48
270.236	35.13
270.705	35.78
271.174	30.68
271.642	34.98
272.111	35.13
272.579	38.33
273.048	34.78
273.516	38.93
273.985	34.03
274.453	35.33
274.922	36.08
275.39	35.98
275.858	39.18
276.327	39.78
276.795	37.68
277.263	41.43
277.731	41.63
278.2	42.38
278.668	40.63
279.136	44.48
279.604	45.33
280.072	43.63
280.54	40.53
281.008	52.53
281.477	43.23
281.945	43.23
282.413	40.93
282.881	47.93
283.348	47.18
283.816	47.53
284.284	48.63
284.752	49.63
285.22	54.63
285.688	45.08
286.156	52.73
286.623	51.48
287.091	46.18
287.559	50.38
288.026	57.73
288.494	54.38
288.962	53.28
289.429	51.83
289.897	52.93
290.364	49.68
290.832	54.03
291.3	56.03
291.767	54.83
292.234	57.93
292.702	59.83
293.169	52.68
293.637	59.68
294.104	57.93
294.571	54.08
295.039	63.23
295.506	54.08
295.973	63.33
296.44	56.38
296.908	67.58
297.375	60.68
297.842	62.48
298.309	63.63
298.776	59.23
299.243	67.03
299.71	65.13
300.177	61.43
300.644	64.78
301.111	68.18
301.578	69.78
302.045	64.88
302.512	64.58
302.979	76.88
303.446	76.08
303.913	73.93
304.379	71.98
304.846	75.33
305.313	76.18
305.78	81.98
306.246	78.98
306.713	82.33
307.18	84.33
307.646	83.48
308.113	85.33
308.579	87.08
309.046	86.38
309.512	90.48
309.979	90.68
310.445	84.98
310.912	93.48
311.378	95.13
311.845	92.93
312.311	88.53
312.777	92.08
313.244	93.58
313.71	97.48
314.176	98.28
314.642	96.08
315.109	91.13
315.575	95.98
316.041	98.03
316.507	93.63
316.973	101.78
317.439	100.58
317.905	104.33
318.371	103.18
318.837	105.63
319.303	105.53
319.769	102.78
320.235	109.13
320.701	112.73
321.167	113.78
321.633	108.78
322.099	103.53
322.564	114.78
323.03	110.38
323.496	115.68
323.962	115.28
324.427	115.58
324.893	112.28
325.359	120.53
325.824	119.23
326.29	122.43
326.755	114.63
327.221	117.23
327.686	127.03
328.152	129.58
328.617	127.43
329.083	129.48
329.548	129.68
330.014	131.13
330.479	133.58
330.944	131.08
331.41	137.13
331.875	128.53
332.34	134.18
332.805	135.28
333.271	132.28
333.736	136.93
334.201	135.63
334.666	143.23
335.131	144.03
335.596	142.08
336.061	139.23
336.526	138.58
336.991	136.68
337.456	134.28
337.921	133.13
338.386	137.48
338.851	136.73
339.316	139.43
339.781	135.63
340.246	141.23
340.711	140.33
341.175	145.98
341.64	150.88
342.105	151.83
342.569	158.43
343.034	154.38
343.499	157.03
343.963	161.18
344.428	164.93
344.893	160.93
345.357	170.83
345.822	162.08
346.286	168.53
346.751	173.43
347.215	171.98
347.679	181.63
348.144	192.93
348.608	191.33
349.073	193.48
349.537	197.28
350.001	192.93
350.465	194.83
350.93	196.53
351.394	200.33
351.858	201.48
352.322	204.98
352.786	203.08
353.25	203.23
353.715	205.28
354.179	220.53
354.643	223.33
355.107	225.33
355.571	218.33
356.035	223.98
356.498	214.78
356.962	213.63
357.426	210.68
357.89	208.93
358.354	208.68
358.818	211.78
359.281	208.08
359.745	212.13
360.209	208.53
360.673	211.08
361.136	210.28
361.6	216.18
362.064	220.08
362.527	227.08
362.991	227.98
363.454	224.73
363.918	233.78
364.381	233.48
364.845	228.68
365.308	227.53
365.772	231.38
366.235	238.23
366.698	226.58
367.162	226.93
367.625	230.93
368.088	234.83
368.552	230.08
369.015	234.58
369.478	243.38
369.941	240.88
370.404	243.83
370.867	240.78
371.331	245.08
371.794	248.28
372.257	245.08
372.72	248.93
373.183	259.28
373.646	251.93
374.109	249.63
374.572	250.43
375.035	257.98
375.497	258.73
375.96	261.13
376.423	267.43
376.886	272.38
377.349	276.13
377.811	273.88
378.274	275.53
378.737	265.78
379.199	274.53
379.662	275.98
380.125	275.48
380.587	280.28
381.05	285.93
381.512	296.28
381.975	296.43
382.437	302.13
382.9	303.98
383.362	304.53
383.825	303.68
384.287	309.63
384.75	303.53
385.212	306.83
385.674	321.33
386.136	316.28
386.599	315.58
387.061	314.58
387.523	318.48
387.985	312.18
388.447	329.18
388.91	321.58
389.372	326.43
389.834	326.83
390.296	321.23
390.758	325.23
391.22	318.08
391.682	325.63
392.144	325.88
392.606	323.93
393.068	338.08
393.529	363.48
393.991	362.48
394.453	344.63
394.915	336.48
395.377	319.88
395.838	328.63
396.3	328.58
396.762	335.93
397.224	328.98
397.685	334.48
398.147	335.38
398.608	347.43
399.07	343.73
399.531	344.53
399.993	357.98
400.454	362.58
400.916	362.48
401.377	368.13
401.839	372.68
402.3	375.13
402.762	390.13
403.223	419.13
403.684	414.33
404.145	395.73
404.607	382.78
405.068	372.33
405.529	378.18
405.99	385.08
406.451	390.13
406.913	373.58
407.374	375.78
407.835	375.38
408.296	389.83
408.757	390.23
409.218	404.78
409.679	406.93
410.14	417.18
410.601	430.48
411.062	434.38
411.522	437.13
411.983	439.18
412.444	443.63
412.905	454.23
413.366	475.48
413.826	503.23
414.287	581.38
414.748	712.43
415.208	730.43
415.669	592.08
416.13	540.03
416.59	529.43
417.051	549.88
417.511	583.43
417.972	628.08
418.432	684.08
418.893	764.53
419.353	731.18
419.814	543.18
420.274	478.88
420.734	464.38
421.195	482.18
421.655	482.88
422.115	491.58
422.576	479.13
423.036	481.03
423.496	506.68
423.956	529.88
424.416	561.48
424.876	640.43
425.336	629.33
425.797	615.68
426.257	590.98
426.717	549.78
427.177	491.78
427.637	490.63
428.097	504.33
428.556	515.48
429.016	552.93
429.476	539.48
429.936	509.58
430.396	503.33
430.856	512.38
431.315	519.63
431.775	555.33
432.235	611.68
432.694	621.13
433.154	565.38
433.614	560.48
434.073	542.68
434.533	501.88
434.993	491.38
435.452	497.53
435.912	495.18
436.371	511.13
436.83	506.03
437.29	507.33
437.749	501.23
438.209	503.63
438.668	519.23
439.127	527.73
439.587	526.08
440.046	518.73
440.505	530.23
440.964	528.78
441.424	558.28
441.883	564.73
442.342	541.93
442.801	520.83
443.26	524.48
443.719	521.88
444.178	521.98
444.637	534.83
445.096	543.88
445.555	544.43
446.014	545.68
446.473	533.63
446.932	545.33
447.391	552.18
447.849	560.18
448.308	553.23
448.767	557.93
449.226	565.58
449.685	576.58
450.143	605.33
450.602	600.68
451.061	567.08
451.519	574.83
451.978	560.03
452.436	552.08
452.895	563.08
453.353	554.68
453.812	552.53
454.27	559.08
454.729	559.38
455.187	557.23
455.646	563.43
456.104	568.23
456.562	567.73
457.021	580.53
457.479	553.28
457.937	574.83
458.395	592.43
458.854	589.03
459.312	577.93
459.77	584.23
460.228	588.63
460.686	594.23
461.144	593.48
461.602	591.58
462.06	590.48
462.518	610.83
462.976	601.98
463.434	612.38
463.892	615.08
464.35	629.88
464.808	633.13
465.266	645.88
465.724	647.63
466.181	647.33
466.639	643.63
467.097	675.93
467.555	694.78
468.012	688.78
468.47	701.33
468.928	714.63
469.385	733.78
469.843	735.88
470.3	738.83
470.758	750.83
471.215	753.88
471.673	770.28
472.13	794.48
472.588	804.08
473.045	797.53
473.503	819.18
473.96	849.48
474.417	852.93
474.875	871.38
475.332	889.88
475.789	899.88
476.246	913.63
476.704	937.63
477.161	943.43
477.618	943.08
478.075	963.18
478.532	990.63
478.989	1019.23
479.446	1064.98
479.903	1057.28
480.36	1082.63
480.817	1069.98
481.274	1080.88
481.731	1122.28
482.188	1139.38
482.645	1168.48
483.102	1168.58
483.558	1211.33
484.015	1230.28
484.472	1220.98
484.929	1239.08
485.385	1240.28
485.842	1248.18
486.299	1251.23
486.755	1245.98
487.212	1217.63
487.668	1195.23
488.125	1191.23
488.582	1181.38
489.038	1184.58
489.494	1207.43
489.951	1200.88
490.407	1201.53
490.864	1201.63
491.32	1195.93
491.776	1209.48
492.233	1226.43
492.689	1219.93
493.145	1206.63
493.602	1200.33
494.058	1230.58
494.514	1230.93
494.97	1229.18
495.426	1251.78
495.882	1264.03
496.338	1266.43
496.794	1274.78
497.251	1278.33
497.707	1291.78
498.163	1304.18
498.618	1294.78
499.074	1301.98
499.53	1307.18
499.986	1331.63
500.442	1309.43
500.898	1302.88
501.354	1324.53
501.809	1325.43
502.265	1324.48
502.721	1330.68
503.177	1339.38
503.632	1347.88
504.088	1336.58
504.543	1371.13
504.999	1381.58
505.455	1374.13
505.91	1359.08
506.366	1363.58
506.821	1371.33
507.277	1359.63
507.732	1364.83
508.187	1369.73
508.643	1367.08
509.098	1385.18
509.553	1394.53
510.009	1414.48
510.464	1442.18
510.919	1455.38
511.375	1464.43
511.83	1473.68
512.285	1502.53
512.74	1535.53
513.195	1565.78
513.65	1597.43
514.105	1614.13
514.56	1629.43
515.015	1641.38
515.47	1660.63
515.925	1636.58
516.38	1642.33
516.835	1653.68
517.29	1634.68
517.745	1636.08
518.2	1613.98
518.655	1567.43
519.109	1547.48
519.564	1530.13
520.019	1520.38
520.474	1505.53
520.928	1490.68
521.383	1485.83
521.838	1481.83
522.292	1470.43
522.747	1451.18
523.201	1449.03
523.656	1423.78
524.11	1429.18
524.565	1424.43
525.019	1429.63
525.474	1426.13
525.928	1407.98
526.382	1410.43
526.837	1408.23
527.291	1415.33
527.745	1402.63
528.2	1409.08
528.654	1382.43
529.108	1393.93
529.562	1403.18
530.016	1388.08
530.47	1392.18
530.925	1389.93
531.379	1384.88
531.833	1406.08
532.287	1401.88
532.741	1391.98
533.195	1395.68
533.649	1394.43
534.103	1398.48
534.556	1386.28
535.01	1407.93
535.464	1380.63
535.918	1390.33
536.372	1397.33
536.826	1387.38
537.279	1386.38
537.733	1388.98
538.187	1402.78
538.64	1390.23
539.094	1413.93
539.548	1424.98
540.001	1418.18
540.455	1437.18
540.908	1432.68
541.362	1452.48
541.815	1464.23
542.269	1493.73
542.722	1491.23
543.175	1507.23
543.629	1516.88
544.082	1530.38
544.536	1548.93
544.989	1545.93
545.442	1557.28
545.895	1557.63
546.349	1548.33
546.802	1560.33
547.255	1563.63
547.708	1570.48
548.161	1593.43
548.614	1588.38
549.067	1606.23
549.52	1607.68
549.973	1576.73
550.426	1554.68
550.879	1551.53
551.332	1556.13
551.785	1569.38
552.238	1577.03
552.691	1585.58
553.144	1602.53
553.596	1635.43
554.049	1658.18
554.502	1684.78
554.955	1727.33
555.407	1762.08
555.86	1729.38
556.313	1704.63
556.765	1686.48
557.218	1664.48
557.67	1669.43
558.123	1636.73
558.576	1630.38
559.028	1624.48
559.48	1654.58
559.933	1644.93
560.385	1574.88
560.838	1527.98
561.29	1484.28
561.742	1469.88
562.195	1437.68
562.647	1433.73
563.099	1418.68
563.551	1418.48
564.004	1427.13
564.456	1419.53
564.908	1387.38
565.36	1345.73
565.812	1317.18
566.264	1305.48
566.716	1283.58
567.168	1267.03
567.62	1269.68
568.072	1262.78
568.524	1251.03
568.976	1248.03
569.428	1239.88
569.88	1234.73
570.332	1245.08
570.784	1241.63
571.235	1232.43
571.687	1246.18
572.139	1254.48
572.59	1262.93
573.042	1264.83
573.494	1271.43
573.945	1246.08
574.397	1222.68
574.849	1223.03
575.3	1217.28
575.752	1197.38
576.203	1190.63
576.655	1197.43
577.106	1181.03
577.557	1171.08
578.009	1163.28
578.46	1166.83
578.912	1151.38
579.363	1162.43
579.814	1169.13
580.265	1163.48
580.717	1167.08
581.168	1166.78
581.619	1170.78
582.07	1188.58
582.521	1173.18
582.972	1173.38
583.423	1172.13
583.875	1179.08
584.326	1187.43
584.777	1206.73
585.227	1225.58
585.678	1243.73
586.129	1255.03
586.58	1272.63
587.031	1290.18
587.482	1325.63
587.933	1349.23
588.384	1343.03
588.834	1336.58
589.285	1338.53
589.736	1329.23
590.186	1328.98
590.637	1312.93
591.088	1274.73
591.538	1258.58
591.989	1239.23
592.439	1225.68
592.89	1211.68
593.34	1207.13
593.791	1196.03
594.241	1189.13
594.692	1183.78
595.142	1184.73
595.593	1186.68
596.043	1191.58
596.493	1198.08
596.943	1194.13
597.394	1227.68
597.844	1242.73
598.294	1274.68
598.744	1320.23
599.195	1392.08
599.645	1479.78
600.095	1565.23
600.545	1637.68
600.995	1727.08
601.445	1785.58
601.895	1892.18
602.345	1960.73
602.795	1930.98
603.245	1834.98
603.695	1718.08
604.145	1608.63
604.594	1534.78
605.044	1440.38
605.494	1350.33
605.944	1267.88
606.393	1233.53
606.843	1208.03
607.293	1203.93
607.743	1198.03
608.192	1218.18
608.642	1220.18
609.091	1211.53
609.541	1224.03
609.99	1213.53
610.44	1190.18
610.889	1173.88
611.339	1147.43
611.788	1139.08
612.238	1153.08
612.687	1159.08
613.136	1163.58
613.586	1170.83
614.035	1162.23
614.484	1168.43
614.933	1164.03
615.383	1153.63
615.832	1116.63
616.281	1108.83
616.73	1083.78
617.179	1051.83
617.628	1032.28
618.077	1026.08
618.526	1000.43
618.975	1007.43
619.424	980.98
619.873	981.48
620.322	978.58
620.771	967.23
621.22	959.38
621.669	927.48
622.118	920.48
622.567	908.63
623.015	894.88
623.464	891.58
623.913	879.03
624.361	885.88
624.81	870.28
625.259	881.13
625.707	875.98
626.156	882.88
626.604	893.68
627.053	902.33
627.501	900.93
627.95	909.98
628.398	922.63
628.847	903.83
629.295	897.33
629.744	900.13
630.192	880.33
630.64	865.38
631.089	841.58
631.537	820.43
631.985	813.83
632.433	807.08
632.881	793.58
633.33	805.73
633.778	799.18
634.226	814.03
634.674	818.53
635.122	825.33
635.57	839.43
636.018	857.43
636.466	844.88
636.914	844.78
637.362	856.23
637.81	880.83
638.258	895.88
638.705	908.08
639.153	933.08
639.601	941.53
640.049	957.93
640.497	999.63
640.944	1019.68
641.392	957.58
641.84	883.58
642.287	826.78
642.735	810.83
643.182	781.38
643.63	777.63
644.078	772.23
644.525	769.48
644.973	778.23
645.42	785.83
645.867	787.53
646.315	784.23
646.762	786.88
647.21	780.18
647.657	792.98
648.104	784.03
648.551	748.38
648.999	743.18
649.446	738.33
649.893	734.78
650.34	746.78
650.787	767.33
651.234	791.98
651.682	859.28
652.129	928.28
652.576	1065.73
653.023	1235.38
653.47	1327.28
653.917	1385.18
654.363	1432.78
654.81	1503.98
655.257	1546.28
655.704	1223.73
656.151	947.98
656.598	827.73
657.044	766.48
657.491	748.28
657.938	729.48
658.385	714.28
658.831	715.53
659.278	706.98
659.724	711.38
660.171	696.03
660.618	677.63
661.064	667.88
661.511	668.98
661.957	669.78
662.404	682.13
662.85	688.03
663.296	693.98
663.743	684.78
664.189	694.08
664.635	698.88
665.082	694.13
665.528	687.48
665.974	667.13
666.42	664.63
666.867	667.58
667.313	631.28
667.759	621.83
668.205	622.83
668.651	632.43
669.097	636.18
669.543	643.68
669.989	651.18
670.435	647.73
670.881	652.83
671.327	692.88
671.773	746.08
672.219	802.68
672.665	869.73
673.11	915.03
673.556	918.68
674.002	956.53
674.448	985.18
674.893	815.58
675.339	702.03
675.785	652.53
676.23	615.93
676.676	587.88
677.122	570.58
677.567	552.08
678.013	539.13
678.458	537.18
678.904	532.38
679.349	524.58
679.794	524.13
680.24	529.63
680.685	524.03
681.131	528.03
681.576	523.68
682.021	533.38
682.466	537.18
682.912	534.48
683.357	570.73
683.802	629.23
684.247	689.83
684.692	739.53
685.137	773.28
685.583	796.83
686.028	848.23
686.473	801.88
686.918	676.58
687.363	620.13
687.807	590.43
688.252	548.48
688.697	532.08
689.142	511.38
689.587	521.08
690.032	530.88
690.477	545.33
690.921	576.73
691.366	613.18
691.811	642.58
692.255	687.68
692.7	842.63
693.145	1221.03
693.589	1881.28
694.034	2276.03
694.478	2487.18
694.923	2322.73
695.367	3392.93
695.812	2005.73
696.256	810.78
696.701	575.43
697.145	524.83
697.59	505.68
698.034	497.08
698.478	497.38
698.922	499.38
699.367	513.08
699.811	540.43
700.255	592.23
700.699	650.88
701.143	709.73
701.588	755.23
702.032	800.88
702.476	819.63
702.92	858.58
703.364	1115.43
703.808	1722.38
704.252	2187.98
704.696	2366.53
705.14	2292.48
705.584	3227.83
706.027	1726.18
706.471	843.48
706.915	605.58
707.359	540.48
707.803	504.48
708.246	475.48
708.69	482.33
709.134	467.03
709.577	471.73
710.021	474.53
710.465	478.43
710.908	471.18
711.352	493.33
711.795	547.88
712.239	591.48
712.682	607.23
713.126	604.53
713.569	685.73
714.012	543.18
714.456	464.53
714.899	439.88
715.342	423.93
715.786	408.33
716.229	392.08
716.672	378.38
717.115	382.03
717.558	386.23
718.002	405.13
718.445	421.83
718.888	444.63
719.331	456.83
719.774	469.73
720.217	459.38
720.66	426.23
721.103	398.88
721.546	378.13
721.989	367.63
722.432	361.78
722.874	355.48
723.317	364.93
723.76	397.33
724.203	499.63
724.645	671.18
725.088	807.23
725.531	805.53
725.974	909.38
726.416	804.18
726.859	469.78
727.301	382.03
727.744	359.13
728.187	365.83
728.629	371.93
729.071	388.93
729.514	413.03
729.956	434.98
730.399	443.43
730.841	446.38
731.283	427.48
731.726	410.28
732.168	416.18
732.61	441.63
733.053	476.98
733.495	532.18
733.937	595.68
734.379	702.53
734.821	901.48
735.263	1434.03
735.705	2561.28
736.148	3859.98
736.59	3988.03
737.032	4447.58
737.474	3641.73
737.916	1345.68
738.357	690.23
738.799	521.98
739.241	476.18
739.683	481.33
740.125	490.18
740.567	498.28
741.008	527.13
741.45	552.48
741.892	571.88
742.334	585.23
742.775	590.38
743.217	558.33
743.658	463.58
744.1	470.33
744.542	532.83
744.983	564.23
745.425	592.63
745.866	580.23
746.307	485.58
746.749	523.93
747.19	759.13
747.632	1502.53
748.073	2820.88
748.514	3982.43
748.956	5453.18
749.397	6450.23
749.838	4415.08
750.279	4335.08
750.72	2175.13
751.162	888.98
751.603	494.78
