Data from MSPlasma+Separation6_Subt14_10-12-30-969.txt Node
Date: Fri Jul 21 10:12:30 EDT 2017
User: Ender
Spectrometer: HR+D1039
Trigger mode: 0
Integration Time (sec): 6.430000E-3
Scans to average: 20
Electric dark correction enabled: true
Nonlinearity correction enabled: false
Boxcar width: 0
XAxis mode: Wavelengths
Number of Pixels in Spectrum: 2048
>>>>>Begin Spectral Data<<<<<
187.836	1.29
188.309	1.29
188.782	1.29
189.255	-2.26
189.728	0.79
190.201	1.29
190.674	3.59
191.147	-5.06
191.619	-1.86
192.092	-2.21
192.565	-0.11
193.038	3.79
193.511	2.34
193.984	3.79
194.456	1.44
194.929	-1.06
195.402	-3.91
195.874	-1.86
196.347	2.74
196.82	0.69
197.292	-3.11
197.765	-2.41
198.237	-0.31
198.71	-3.66
199.182	-4.76
199.655	-1.51
200.127	1.64
200.6	-1.66
201.072	-1.41
201.544	-3.06
202.017	2.39
202.489	2.54
202.961	0.74
203.433	-5.16
203.906	3.44
204.378	-0.06
204.85	2.59
205.322	-2.26
205.794	2.24
206.266	-0.96
206.739	5.29
207.211	0.84
207.683	-0.76
208.155	3.24
208.627	-0.71
209.099	1.94
209.57	1.69
210.042	4.99
210.514	2.79
210.986	1.14
211.458	-0.56
211.93	-0.71
212.402	1.79
212.873	-6.31
213.345	-2.66
213.817	-3.51
214.288	-1.56
214.76	-3.16
215.232	-0.81
215.703	0.34
216.175	1.79
216.646	2.19
217.118	-1.06
217.589	1.14
218.061	-1.16
218.532	-1.06
219.004	2.59
219.475	0.09
219.946	-1.76
220.418	1.44
220.889	1.79
221.36	5.29
221.832	5.54
222.303	3.49
222.774	4.64
223.245	-1.51
223.717	-2.61
224.188	1.64
224.659	0.64
225.13	-2.11
225.601	3.94
226.072	4.34
226.543	3.74
227.014	2.44
227.485	0.59
227.956	6.99
228.427	9.89
228.898	2.59
229.369	4.09
229.839	3.24
230.31	6.54
230.781	7.24
231.252	6.04
231.722	4.79
232.193	1.49
232.664	8.29
233.135	1.09
233.605	3.99
234.076	12.39
234.546	6.59
235.017	6.19
235.487	6.94
235.958	7.19
236.428	11.04
236.899	7.44
237.369	13.39
237.84	12.24
238.31	9.19
238.78	7.04
239.251	9.54
239.721	5.79
240.191	8.79
240.662	7.84
241.132	11.34
241.602	8.99
242.072	8.59
242.542	8.59
243.013	6.84
243.483	12.79
243.953	7.99
244.423	11.14
244.893	10.54
245.363	17.69
245.833	11.89
246.303	15.94
246.773	14.84
247.243	15.99
247.712	16.59
248.182	15.34
248.652	14.89
249.122	13.64
249.592	17.49
250.061	13.79
250.531	13.34
251.001	15.19
251.471	18.19
251.94	16.94
252.41	19.39
252.879	21.04
253.349	23.14
253.818	23.34
254.288	24.04
254.757	21.54
255.227	22.19
255.696	19.24
256.166	25.59
256.635	22.54
257.105	22.14
257.574	22.74
258.043	21.39
258.513	22.94
258.982	20.44
259.451	24.99
259.92	20.79
260.389	26.29
260.859	22.19
261.328	26.34
261.797	23.64
262.266	29.94
262.735	29.09
263.204	25.04
263.673	27.24
264.142	23.94
264.611	28.94
265.08	27.94
265.549	28.69
266.018	33.14
266.487	30.04
266.955	25.04
267.424	34.24
267.893	34.79
268.362	29.04
268.83	31.49
269.299	29.14
269.768	31.64
270.236	28.59
270.705	38.09
271.174	33.39
271.642	30.89
272.111	33.54
272.579	33.04
273.048	36.79
273.516	36.59
273.985	36.29
274.453	33.79
274.922	35.24
275.39	33.19
275.858	38.29
276.327	39.84
276.795	38.89
277.263	37.94
277.731	35.64
278.2	44.49
278.668	36.69
279.136	41.54
279.604	40.79
280.072	34.74
280.54	45.29
281.008	46.99
281.477	46.64
281.945	44.19
282.413	46.54
282.881	43.14
283.348	41.64
283.816	44.99
284.284	46.89
284.752	44.64
285.22	54.49
285.688	44.24
286.156	44.74
286.623	47.19
287.091	52.49
287.559	53.89
288.026	52.69
288.494	53.54
288.962	51.94
289.429	55.89
289.897	51.14
290.364	43.39
290.832	53.59
291.3	54.89
291.767	52.94
292.234	53.99
292.702	54.64
293.169	57.64
293.637	57.79
294.104	55.59
294.571	57.84
295.039	66.79
295.506	58.14
295.973	61.19
296.44	56.89
296.908	63.34
297.375	62.09
297.842	61.24
298.309	57.69
298.776	62.69
299.243	64.99
299.71	60.09
300.177	64.89
300.644	64.24
301.111	67.84
301.578	71.59
302.045	65.04
302.512	65.19
302.979	73.79
303.446	76.19
303.913	74.19
304.379	78.44
304.846	77.14
305.313	76.64
305.78	80.74
306.246	76.44
306.713	85.54
307.18	78.49
307.646	81.89
308.113	76.49
308.579	88.24
309.046	86.34
309.512	84.19
309.979	92.34
310.445	87.99
310.912	92.74
311.378	90.44
311.845	92.69
312.311	91.19
312.777	92.64
313.244	96.34
313.71	98.94
314.176	100.69
314.642	97.99
315.109	97.39
315.575	98.04
316.041	100.34
316.507	99.44
316.973	104.09
317.439	105.59
317.905	102.74
318.371	104.64
318.837	104.74
319.303	109.74
319.769	102.54
320.235	110.84
320.701	111.49
321.167	105.89
321.633	112.74
322.099	109.59
322.564	114.14
323.03	107.39
323.496	116.79
323.962	111.99
324.427	115.74
324.893	111.14
325.359	121.69
325.824	123.34
326.29	127.44
326.755	117.94
327.221	120.14
327.686	131.74
328.152	129.79
328.617	129.09
329.083	132.04
329.548	133.34
330.014	130.14
330.479	134.04
330.944	137.34
331.41	137.09
331.875	131.39
332.34	130.49
332.805	139.79
333.271	137.64
333.736	137.29
334.201	133.89
334.666	148.29
335.131	138.79
335.596	143.94
336.061	146.84
336.526	147.34
336.991	145.64
337.456	141.79
337.921	138.89
338.386	141.79
338.851	143.89
339.316	144.94
339.781	138.74
340.246	148.94
340.711	145.49
341.175	150.04
341.64	154.34
342.105	157.89
342.569	162.29
343.034	153.74
343.499	156.04
343.963	163.99
344.428	163.49
344.893	166.54
345.357	171.54
345.822	169.44
346.286	175.89
346.751	178.84
347.215	177.69
347.679	189.64
348.144	198.94
348.608	200.64
349.073	198.49
349.537	201.74
350.001	200.99
350.465	205.44
350.93	205.54
351.394	204.14
351.858	203.99
352.322	208.59
352.786	215.04
353.25	215.19
353.715	216.84
354.179	224.64
354.643	230.99
355.107	230.44
355.571	229.94
356.035	232.59
356.498	225.74
356.962	226.59
357.426	221.29
357.89	219.74
358.354	219.14
358.818	216.94
359.281	222.99
359.745	221.54
360.209	225.44
360.673	219.79
361.136	225.14
361.6	224.04
362.064	229.09
362.527	234.79
362.991	230.79
363.454	234.74
363.918	240.64
364.381	242.04
364.845	233.29
365.308	237.44
365.772	244.79
366.235	239.94
366.698	235.09
367.162	235.04
367.625	241.14
368.088	248.99
368.552	249.24
369.015	241.74
369.478	251.54
369.941	247.09
370.404	254.99
370.867	250.09
371.331	253.59
371.794	260.84
372.257	263.34
372.72	266.54
373.183	262.94
373.646	264.19
374.109	259.89
374.572	264.94
375.035	273.49
375.497	272.44
375.96	277.59
376.423	279.94
376.886	281.74
377.349	284.99
377.811	289.09
378.274	282.99
378.737	286.29
379.199	288.09
379.662	290.39
380.125	297.24
380.587	294.29
381.05	302.19
381.512	302.74
381.975	310.44
382.437	318.94
382.9	316.49
383.362	316.74
383.825	316.34
384.287	321.74
384.75	319.14
385.212	327.49
385.674	330.19
386.136	333.49
386.599	329.89
387.061	328.54
387.523	326.94
387.985	339.09
388.447	336.54
388.91	335.54
389.372	341.09
389.834	340.34
390.296	332.64
390.758	338.64
391.22	337.44
391.682	337.64
392.144	334.84
392.606	341.99
393.068	351.74
393.529	376.34
393.991	382.69
394.453	359.69
394.915	350.39
395.377	335.09
395.838	344.04
396.3	340.09
396.762	358.84
397.224	348.69
397.685	351.19
398.147	354.59
398.608	367.19
399.07	366.09
399.531	363.99
399.993	371.49
400.454	380.59
400.916	379.29
401.377	385.39
401.839	385.39
402.3	384.19
402.762	408.89
403.223	437.79
403.684	436.34
404.145	415.79
404.607	398.54
405.068	389.99
405.529	392.59
405.99	396.39
406.451	399.59
406.913	394.14
407.374	391.99
407.835	396.49
408.296	411.34
408.757	410.39
409.218	424.89
409.679	426.49
410.14	436.94
410.601	446.24
411.062	451.89
411.522	454.89
411.983	458.34
412.444	471.84
412.905	477.39
413.366	502.29
413.826	530.64
414.287	610.69
414.748	745.69
415.208	768.34
415.669	625.44
416.13	558.99
416.59	549.24
417.051	574.94
417.511	616.89
417.972	654.44
418.432	714.89
418.893	800.74
419.353	772.24
419.814	570.29
420.274	495.59
420.734	492.34
421.195	504.69
421.655	499.29
422.115	510.39
422.576	504.19
423.036	511.59
423.496	530.14
423.956	552.59
424.416	593.49
424.876	675.89
425.336	655.94
425.797	639.34
426.257	626.64
426.717	576.29
427.177	517.44
427.637	510.44
428.097	520.94
428.556	540.39
429.016	586.94
429.476	566.19
429.936	540.14
430.396	527.64
430.856	535.59
431.315	537.19
431.775	585.34
432.235	640.79
432.694	649.64
433.154	591.89
433.614	574.59
434.073	568.24
434.533	519.94
434.993	512.44
435.452	529.14
435.912	521.39
436.371	532.89
436.83	525.89
437.29	530.64
437.749	521.39
438.209	523.29
438.668	541.29
439.127	555.14
439.587	550.64
440.046	531.49
440.505	549.54
440.964	556.39
441.424	570.79
441.883	584.44
442.342	562.69
442.801	545.54
443.26	548.89
443.719	551.09
444.178	541.94
444.637	559.09
445.096	561.64
445.555	573.84
446.014	574.69
446.473	566.64
446.932	568.79
447.391	582.29
447.849	581.24
448.308	577.29
448.767	576.49
449.226	591.94
449.685	595.69
450.143	635.74
450.602	624.44
451.061	583.54
451.519	592.99
451.978	585.54
452.436	578.99
452.895	583.69
453.353	584.54
453.812	579.34
454.27	575.54
454.729	581.39
455.187	579.84
455.646	594.29
456.104	586.14
456.562	596.94
457.021	597.49
457.479	575.89
457.937	598.09
458.395	608.09
458.854	604.14
459.312	596.04
459.77	607.19
460.228	609.19
460.686	615.99
461.144	618.09
461.602	611.89
462.06	618.99
462.518	634.39
462.976	623.64
463.434	632.74
463.892	646.99
464.35	645.34
464.808	655.49
465.266	663.84
465.724	673.84
466.181	672.29
466.639	665.99
467.097	697.09
467.555	716.69
468.012	708.24
468.47	712.54
468.928	734.84
469.385	759.14
469.843	757.89
470.3	755.84
470.758	775.94
471.215	786.74
471.673	801.54
472.13	815.69
472.588	837.39
473.045	827.79
473.503	845.74
473.96	870.59
474.417	877.19
474.875	903.99
475.332	925.34
475.789	933.79
476.246	946.59
476.704	965.44
477.161	968.64
477.618	966.19
478.075	990.89
478.532	1022.74
478.989	1048.59
479.446	1092.79
479.903	1091.49
480.36	1116.09
480.817	1103.49
481.274	1110.44
481.731	1156.59
482.188	1172.89
482.645	1194.94
483.102	1202.74
483.558	1241.59
484.015	1268.59
484.472	1272.24
484.929	1274.54
485.385	1272.99
485.842	1274.74
486.299	1286.54
486.755	1271.64
487.212	1257.99
487.668	1221.04
488.125	1220.49
488.582	1201.79
489.038	1214.89
489.494	1222.54
489.951	1219.54
490.407	1226.74
490.864	1237.29
491.32	1233.44
491.776	1240.89
492.233	1251.64
492.689	1258.04
493.145	1230.64
493.602	1230.19
494.058	1258.59
494.514	1253.09
494.97	1266.34
495.426	1278.99
495.882	1287.24
496.338	1290.79
496.794	1302.34
497.251	1290.79
497.707	1320.99
498.163	1326.89
498.618	1326.69
499.074	1325.64
499.53	1341.44
499.986	1342.04
500.442	1344.89
500.898	1329.34
501.354	1347.49
501.809	1348.19
502.265	1358.79
502.721	1364.84
503.177	1361.54
503.632	1373.04
504.088	1373.99
504.543	1399.84
504.999	1405.04
505.455	1401.34
505.91	1379.24
506.366	1392.24
506.821	1404.84
507.277	1390.24
507.732	1391.44
508.187	1398.34
508.643	1411.24
509.098	1412.09
509.553	1424.59
510.009	1444.34
510.464	1467.24
510.919	1468.94
511.375	1494.09
511.83	1508.54
512.285	1543.94
512.74	1562.59
513.195	1588.09
513.65	1618.04
514.105	1642.19
514.56	1643.09
515.015	1678.24
515.47	1692.24
515.925	1667.64
516.38	1665.49
516.835	1675.64
517.29	1667.84
517.745	1665.64
518.2	1641.39
518.655	1595.89
519.109	1581.24
519.564	1556.39
520.019	1544.69
520.474	1529.69
520.928	1513.44
521.383	1506.09
521.838	1502.79
522.292	1488.54
522.747	1478.24
523.201	1479.24
523.656	1457.19
524.11	1456.04
524.565	1442.99
525.019	1457.54
525.474	1447.19
525.928	1434.09
526.382	1440.59
526.837	1436.14
527.291	1432.14
527.745	1430.79
528.2	1425.39
528.654	1414.29
529.108	1418.09
529.562	1417.24
530.016	1409.49
530.47	1416.54
530.925	1411.14
531.379	1405.69
531.833	1416.04
532.287	1411.64
532.741	1404.09
533.195	1419.34
533.649	1416.59
534.103	1413.84
534.556	1395.89
535.01	1414.54
535.464	1404.09
535.918	1410.44
536.372	1417.79
536.826	1406.09
537.279	1399.79
537.733	1407.99
538.187	1406.59
538.64	1402.69
539.094	1423.84
539.548	1435.99
540.001	1440.84
540.455	1439.84
540.908	1449.79
541.362	1471.29
541.815	1479.19
542.269	1509.39
542.722	1505.89
543.175	1525.44
543.629	1529.84
544.082	1541.24
544.536	1553.44
544.989	1576.34
545.442	1578.99
545.895	1571.54
546.349	1568.29
546.802	1583.79
547.255	1583.29
547.708	1610.14
548.161	1622.34
548.614	1624.59
549.067	1633.24
549.52	1611.04
549.973	1589.69
550.426	1575.14
550.879	1562.34
551.332	1566.94
551.785	1587.34
552.238	1585.49
552.691	1604.14
553.144	1623.09
553.596	1651.69
554.049	1674.09
554.502	1716.34
554.955	1737.89
555.407	1768.84
555.86	1749.04
556.313	1706.44
556.765	1698.69
557.218	1685.84
557.67	1674.54
558.123	1647.49
558.576	1651.24
559.028	1640.94
559.48	1675.04
559.933	1662.64
560.385	1597.89
560.838	1540.69
561.29	1495.09
561.742	1483.09
562.195	1453.89
562.647	1437.74
563.099	1435.69
563.551	1431.54
564.004	1439.54
564.456	1425.89
564.908	1396.84
565.36	1356.79
565.812	1328.14
566.264	1320.09
566.716	1302.39
567.168	1283.64
567.62	1281.79
568.072	1275.64
568.524	1260.14
568.976	1253.49
569.428	1244.99
569.88	1248.79
570.332	1261.29
570.784	1253.99
571.235	1249.09
571.687	1261.24
572.139	1258.59
572.59	1276.39
573.042	1275.39
573.494	1277.64
573.945	1263.49
574.397	1233.49
574.849	1226.99
575.3	1226.24
575.752	1211.09
576.203	1199.99
576.655	1201.74
577.106	1176.24
577.557	1176.89
578.009	1173.64
578.46	1174.19
578.912	1166.54
579.363	1167.69
579.814	1176.64
580.265	1174.44
580.717	1168.29
581.168	1172.59
581.619	1181.09
582.07	1192.29
582.521	1181.19
582.972	1175.89
583.423	1181.99
583.875	1181.34
584.326	1195.94
584.777	1215.29
585.227	1234.79
585.678	1259.89
586.129	1263.64
586.58	1277.24
587.031	1298.54
587.482	1341.04
587.933	1361.24
588.384	1365.19
588.834	1344.29
589.285	1331.09
589.736	1338.29
590.186	1346.29
590.637	1329.99
591.088	1291.94
591.538	1261.29
591.989	1236.14
592.439	1226.79
592.89	1216.79
593.34	1216.39
593.791	1198.09
594.241	1185.94
594.692	1182.99
595.142	1180.74
595.593	1191.69
596.043	1188.09
596.493	1192.34
596.943	1193.49
597.394	1241.19
597.844	1252.34
598.294	1278.54
598.744	1328.09
599.195	1396.49
599.645	1478.84
600.095	1562.84
600.545	1642.49
600.995	1729.69
601.445	1801.09
601.895	1898.14
602.345	1977.64
602.795	1934.14
603.245	1851.04
603.695	1728.84
604.145	1614.94
604.594	1531.89
605.044	1452.19
605.494	1348.49
605.944	1265.24
606.393	1234.04
606.843	1209.49
607.293	1218.29
607.743	1205.89
608.192	1216.69
608.642	1225.74
609.091	1230.74
609.541	1223.44
609.99	1218.54
610.44	1194.24
610.889	1175.99
611.339	1156.34
611.788	1143.99
612.238	1147.09
612.687	1147.69
613.136	1157.69
613.586	1168.04
614.035	1170.44
614.484	1173.54
614.933	1172.74
615.383	1159.39
615.832	1126.44
616.281	1117.49
616.73	1090.64
617.179	1056.74
617.628	1038.04
618.077	1024.09
618.526	1015.69
618.975	999.79
619.424	977.09
619.873	983.34
620.322	977.34
620.771	971.19
621.22	958.14
621.669	931.44
622.118	924.19
622.567	914.04
623.015	892.19
623.464	890.09
623.913	879.49
624.361	879.79
624.81	883.44
625.259	886.59
625.707	875.44
626.156	879.54
626.604	905.09
627.053	901.64
627.501	907.94
627.95	904.94
628.398	920.84
628.847	911.04
629.295	906.89
629.744	897.24
630.192	878.74
630.64	863.64
631.089	849.54
631.537	810.99
631.985	815.39
632.433	803.59
632.881	799.64
633.33	801.84
633.778	805.64
634.226	808.39
634.674	817.94
635.122	826.19
635.57	832.64
636.018	844.34
636.466	844.14
636.914	839.74
637.362	845.79
637.81	872.24
638.258	908.19
638.705	902.64
639.153	941.34
639.601	946.99
640.049	960.54
640.497	995.59
640.944	1028.04
641.392	956.14
641.84	886.34
642.287	834.19
642.735	804.89
643.182	786.79
643.63	780.24
644.078	768.04
644.525	763.94
644.973	776.64
645.42	777.59
645.867	788.24
646.315	781.04
646.762	790.04
647.21	787.44
647.657	795.04
648.104	778.99
648.551	747.54
648.999	743.64
649.446	734.89
649.893	736.49
650.34	751.69
650.787	774.09
651.234	789.64
651.682	848.84
652.129	942.79
652.576	1079.79
653.023	1240.54
653.47	1334.99
653.917	1391.59
654.363	1438.54
654.81	1502.89
655.257	1548.84
655.704	1222.04
656.151	951.94
656.598	834.24
657.044	772.34
657.491	747.64
657.938	729.04
658.385	720.09
658.831	717.49
659.278	715.24
659.724	706.64
660.171	700.49
660.618	676.94
661.064	656.64
661.511	667.79
661.957	667.44
662.404	671.79
662.85	679.74
663.296	691.89
663.743	685.64
664.189	695.39
664.635	695.34
665.082	697.54
665.528	693.74
665.974	679.74
666.42	668.79
666.867	661.49
667.313	628.99
667.759	633.29
668.205	623.54
668.651	631.74
669.097	636.89
669.543	628.99
669.989	648.64
670.435	645.29
670.881	660.54
671.327	687.99
671.773	744.84
672.219	808.54
672.665	872.69
673.11	905.54
673.556	926.74
674.002	971.29
674.448	989.64
674.893	825.44
675.339	707.04
675.785	649.04
676.23	615.79
676.676	584.29
677.122	575.89
677.567	560.29
678.013	542.54
678.458	535.64
678.904	529.24
679.349	525.14
679.794	532.94
680.24	530.94
680.685	519.19
681.131	518.44
681.576	521.24
682.021	527.29
682.466	535.24
682.912	542.29
683.357	564.74
683.802	622.29
684.247	685.04
684.692	737.79
685.137	776.89
685.583	787.59
686.028	855.69
686.473	802.34
686.918	676.29
687.363	620.59
687.807	584.74
688.252	553.89
688.697	521.34
689.142	511.34
689.587	512.09
690.032	528.89
690.477	543.29
690.921	575.79
691.366	608.14
691.811	638.74
692.255	698.29
692.7	850.89
693.145	1228.69
693.589	1890.99
694.034	2306.64
694.478	2512.84
694.923	2340.19
695.367	3403.79
695.812	2000.94
696.256	804.59
696.701	577.59
697.145	524.84
697.59	501.54
698.034	494.94
698.478	495.49
698.922	495.54
699.367	513.89
699.811	541.89
700.255	589.99
700.699	648.54
701.143	716.29
701.588	762.94
702.032	796.74
702.476	820.89
702.92	860.74
703.364	1120.64
703.808	1722.54
704.252	2208.94
704.696	2395.34
705.14	2295.29
705.584	3232.74
706.027	1742.84
706.471	834.89
706.915	613.59
707.359	540.34
707.803	499.84
708.246	482.24
708.69	477.79
709.134	480.59
709.577	474.39
710.021	479.09
710.465	475.59
710.908	466.04
711.352	487.94
711.795	539.79
712.239	593.84
712.682	601.29
713.126	596.74
713.569	683.24
714.012	550.09
714.456	468.09
714.899	438.09
715.342	422.84
715.786	401.04
716.229	391.04
716.672	376.64
717.115	381.84
717.558	392.29
718.002	401.64
718.445	425.84
718.888	444.39
719.331	461.09
719.774	466.69
720.217	456.69
720.66	426.69
721.103	405.09
721.546	371.84
721.989	366.04
722.432	360.44
722.874	362.09
723.317	363.74
723.76	395.54
724.203	496.74
724.645	676.69
725.088	821.49
725.531	812.49
725.974	908.34
726.416	801.74
726.859	465.99
727.301	382.59
727.744	360.54
728.187	361.59
728.629	375.34
729.071	392.74
729.514	414.24
729.956	435.29
730.399	441.84
730.841	434.94
731.283	427.94
731.726	408.19
732.168	423.24
732.61	443.29
733.053	476.99
733.495	537.29
733.937	602.49
734.379	707.84
734.821	905.29
735.263	1422.14
735.705	2571.89
736.148	3906.94
736.59	3992.49
737.032	4468.34
737.474	3647.39
737.916	1356.04
738.357	685.79
738.799	518.04
739.241	476.99
739.683	471.04
740.125	485.09
740.567	492.84
741.008	529.44
741.45	557.79
741.892	571.49
742.334	578.74
742.775	580.84
743.217	553.59
743.658	458.84
744.1	470.29
744.542	531.84
744.983	556.54
745.425	595.24
745.866	584.54
746.307	494.84
746.749	519.59
747.19	759.94
747.632	1501.69
748.073	2838.44
748.514	4010.74
748.956	5489.24
749.397	6504.89
749.838	4438.64
750.279	4341.04
750.72	2189.34
751.162	890.14
751.603	500.64
