Data from 20170802-ORNL-NYSim-Air_HRD10391_10-38-46-669.txt Node
Date: Wed Aug 02 10:38:46 EDT 2017
User: Ender
Spectrometer: HR+D1039
Trigger mode: 0
Integration Time (sec): 1.100000E-3
Scans to average: 1
Electric dark correction enabled: true
Nonlinearity correction enabled: false
Boxcar width: 0
XAxis mode: Wavelengths
Number of Pixels in Spectrum: 2048
>>>>>Begin Spectral Data<<<<<
187.836	-0.88
188.309	-0.88
188.782	-0.88
189.255	9.12
189.728	-2.88
190.201	-14.88
190.674	-4.88
191.147	-21.88
191.619	3.12
192.092	-14.88
192.565	-2.88
193.038	-4.88
193.511	-8.88
193.984	15.12
194.456	5.12
194.929	22.12
195.402	8.12
195.874	14.12
196.347	24.12
196.82	23.12
197.292	22.12
197.765	29.12
198.237	42.12
198.71	32.12
199.182	48.12
199.655	39.12
200.127	42.12
200.6	47.12
201.072	53.12
201.544	65.12
202.017	56.12
202.489	57.12
202.961	59.12
203.433	46.12
203.906	75.12
204.378	73.12
204.85	61.12
205.322	81.12
205.794	77.12
206.266	65.12
206.739	76.12
207.211	76.12
207.683	88.12
208.155	88.12
208.627	90.12
209.099	86.12
209.57	90.12
210.042	91.12
210.514	76.12
210.986	80.12
211.458	96.12
211.93	71.12
212.402	81.12
212.873	75.12
213.345	84.12
213.817	76.12
214.288	87.12
214.76	93.12
215.232	78.12
215.703	75.12
216.175	87.12
216.646	89.12
217.118	78.12
217.589	91.12
218.061	71.12
218.532	85.12
219.004	87.12
219.475	85.12
219.946	72.12
220.418	84.12
220.889	71.12
221.36	66.12
221.832	63.12
222.303	68.12
222.774	74.12
223.245	62.12
223.717	73.12
224.188	73.12
224.659	68.12
225.13	91.12
225.601	86.12
226.072	76.12
226.543	64.12
227.014	82.12
227.485	82.12
227.956	80.12
228.427	78.12
228.898	79.12
229.369	70.12
229.839	75.12
230.31	69.12
230.781	75.12
231.252	74.12
231.722	86.12
232.193	83.12
232.664	95.12
233.135	94.12
233.605	93.12
234.076	82.12
234.546	76.12
235.017	97.12
235.487	65.12
235.958	66.12
236.428	70.12
236.899	90.12
237.369	81.12
237.84	87.12
238.31	97.12
238.78	71.12
239.251	81.12
239.721	88.12
240.191	93.12
240.662	78.12
241.132	79.12
241.602	77.12
242.072	65.12
242.542	86.12
243.013	75.12
243.483	92.12
243.953	66.12
244.423	61.12
244.893	77.12
245.363	80.12
245.833	79.12
246.303	103.12
246.773	62.12
247.243	89.12
247.712	78.12
248.182	88.12
248.652	85.12
249.122	99.12
249.592	109.12
250.061	131.12
250.531	135.12
251.001	117.12
251.471	112.12
251.94	121.12
252.41	93.12
252.879	101.12
253.349	91.12
253.818	77.12
254.288	80.12
254.757	87.12
255.227	91.12
255.696	71.12
256.166	70.12
256.635	79.12
257.105	114.12
257.574	99.12
258.043	88.12
258.513	93.12
258.982	105.12
259.451	89.12
259.92	115.12
260.389	94.12
260.859	90.12
261.328	88.12
261.797	99.12
262.266	102.12
262.735	96.12
263.204	98.12
263.673	75.12
264.142	76.12
264.611	102.12
265.08	91.12
265.549	81.12
266.018	90.12
266.487	81.12
266.955	75.12
267.424	86.12
267.893	97.12
268.362	84.12
268.83	76.12
269.299	87.12
269.768	93.12
270.236	94.12
270.705	76.12
271.174	95.12
271.642	102.12
272.111	83.12
272.579	102.12
273.048	111.12
273.516	117.12
273.985	125.12
274.453	114.12
274.922	102.12
275.39	100.12
275.858	82.12
276.327	85.12
276.795	101.12
277.263	77.12
277.731	72.12
278.2	102.12
278.668	95.12
279.136	119.12
279.604	100.12
280.072	89.12
280.54	87.12
281.008	92.12
281.477	77.12
281.945	92.12
282.413	95.12
282.881	92.12
283.348	93.12
283.816	89.12
284.284	75.12
284.752	91.12
285.22	91.12
285.688	99.12
286.156	95.12
286.623	144.12
287.091	190.12
287.559	136.12
288.026	93.12
288.494	111.12
288.962	78.12
289.429	90.12
289.897	101.12
290.364	81.12
290.832	99.12
291.3	97.12
291.767	99.12
292.234	101.12
292.702	88.12
293.169	84.12
293.637	104.12
294.104	98.12
294.571	93.12
295.039	100.12
295.506	80.12
295.973	85.12
296.44	96.12
296.908	93.12
297.375	100.12
297.842	111.12
298.309	99.12
298.776	98.12
299.243	103.12
299.71	101.12
300.177	106.12
300.644	106.12
301.111	92.12
301.578	98.12
302.045	89.12
302.512	91.12
302.979	91.12
303.446	103.12
303.913	107.12
304.379	104.12
304.846	104.12
305.313	104.12
305.78	125.12
306.246	108.12
306.713	133.12
307.18	108.12
307.646	106.12
308.113	104.12
308.579	111.12
309.046	104.12
309.512	105.12
309.979	111.12
310.445	110.12
310.912	91.12
311.378	111.12
311.845	100.12
312.311	86.12
312.777	116.12
313.244	107.12
313.71	117.12
314.176	114.12
314.642	117.12
315.109	119.12
315.575	131.12
316.041	111.12
316.507	98.12
316.973	120.12
317.439	99.12
317.905	130.12
318.371	114.12
318.837	122.12
319.303	119.12
319.769	101.12
320.235	119.12
320.701	96.12
321.167	133.12
321.633	124.12
322.099	181.12
322.564	195.12
323.03	175.12
323.496	129.12
323.962	143.12
324.427	131.12
324.893	123.12
325.359	128.12
325.824	112.12
326.29	117.12
326.755	105.12
327.221	134.12
327.686	114.12
328.152	117.12
328.617	133.12
329.083	102.12
329.548	114.12
330.014	126.12
330.479	118.12
330.944	123.12
331.41	150.12
331.875	137.12
332.34	151.12
332.805	149.12
333.271	172.12
333.736	187.12
334.201	183.12
334.666	145.12
335.131	157.12
335.596	131.12
336.061	158.12
336.526	156.12
336.991	126.12
337.456	159.12
337.921	142.12
338.386	125.12
338.851	138.12
339.316	118.12
339.781	107.12
340.246	114.12
340.711	107.12
341.175	140.12
341.64	126.12
342.105	120.12
342.569	111.12
343.034	121.12
343.499	143.12
343.963	128.12
344.428	122.12
344.893	115.12
345.357	132.12
345.822	107.12
346.286	118.12
346.751	126.12
347.215	126.12
347.679	135.12
348.144	149.12
348.608	147.12
349.073	127.12
349.537	124.12
350.001	147.12
350.465	150.12
350.93	149.12
351.394	126.12
351.858	133.12
352.322	146.12
352.786	124.12
353.25	139.12
353.715	151.12
354.179	119.12
354.643	135.12
355.107	136.12
355.571	143.12
356.035	171.12
356.498	144.12
356.962	147.12
357.426	155.12
357.89	139.12
358.354	157.12
358.818	133.12
359.281	133.12
359.745	127.12
360.209	118.12
360.673	137.12
361.136	146.12
361.6	123.12
362.064	147.12
362.527	143.12
362.991	158.12
363.454	147.12
363.918	153.12
364.381	159.12
364.845	146.12
365.308	141.12
365.772	143.12
366.235	136.12
366.698	149.12
367.162	163.12
367.625	190.12
368.088	145.12
368.552	157.12
369.015	170.12
369.478	135.12
369.941	150.12
370.404	159.12
370.867	157.12
371.331	164.12
371.794	158.12
372.257	161.12
372.72	178.12
373.183	195.12
373.646	185.12
374.109	183.12
374.572	200.12
375.035	214.12
375.497	190.12
375.96	178.12
376.423	179.12
376.886	175.12
377.349	172.12
377.811	164.12
378.274	181.12
378.737	182.12
379.199	177.12
379.662	167.12
380.125	164.12
380.587	179.12
381.05	194.12
381.512	176.12
381.975	171.12
382.437	194.12
382.9	205.12
383.362	191.12
383.825	183.12
384.287	220.12
384.75	240.12
385.212	218.12
385.674	187.12
386.136	183.12
386.599	190.12
387.061	205.12
387.523	203.12
387.985	207.12
388.447	205.12
388.91	232.12
389.372	256.12
389.834	243.12
390.296	205.12
390.758	207.12
391.22	227.12
391.682	243.12
392.144	370.12
392.606	332.12
393.068	250.12
393.529	219.12
393.991	205.12
394.453	217.12
394.915	209.12
395.377	245.12
395.838	279.12
396.3	211.12
396.762	168.12
397.224	179.12
397.685	174.12
398.147	176.12
398.608	184.12
399.07	172.12
399.531	183.12
399.993	189.12
400.454	199.12
400.916	194.12
401.377	204.12
401.839	186.12
402.3	181.12
402.762	196.12
403.223	226.12
403.684	214.12
404.145	213.12
404.607	192.12
405.068	185.12
405.529	190.12
405.99	192.12
406.451	195.12
406.913	182.12
407.374	223.12
407.835	206.12
408.296	219.12
408.757	219.12
409.218	231.12
409.679	208.12
410.14	222.12
410.601	200.12
411.062	221.12
411.522	263.12
411.983	265.12
412.444	254.12
412.905	213.12
413.366	228.12
413.826	220.12
414.287	239.12
414.748	252.12
415.208	282.12
415.669	273.12
416.13	240.12
416.59	245.12
417.051	215.12
417.511	230.12
417.972	261.12
418.432	275.12
418.893	292.12
419.353	269.12
419.814	235.12
420.274	217.12
420.734	215.12
421.195	219.12
421.655	225.12
422.115	235.12
422.576	213.12
423.036	222.12
423.496	213.12
423.956	253.12
424.416	231.12
424.876	269.12
425.336	271.12
425.797	268.12
426.257	265.12
426.717	255.12
427.177	232.12
427.637	244.12
428.097	265.12
428.556	271.12
429.016	288.12
429.476	293.12
429.936	273.12
430.396	267.12
430.856	285.12
431.315	285.12
431.775	295.12
432.235	320.12
432.694	309.12
433.154	290.12
433.614	303.12
434.073	298.12
434.533	255.12
434.993	248.12
435.452	243.12
435.912	254.12
436.371	267.12
436.83	258.12
437.29	263.12
437.749	221.12
438.209	245.12
438.668	260.12
439.127	246.12
439.587	248.12
440.046	224.12
440.505	235.12
440.964	263.12
441.424	259.12
441.883	254.12
442.342	257.12
442.801	239.12
443.26	246.12
443.719	245.12
444.178	250.12
444.637	242.12
445.096	239.12
445.555	233.12
446.014	250.12
446.473	213.12
446.932	240.12
447.391	249.12
447.849	241.12
448.308	263.12
448.767	253.12
449.226	249.12
449.685	269.12
450.143	254.12
450.602	250.12
451.061	245.12
451.519	258.12
451.978	279.12
452.436	273.12
452.895	272.12
453.353	245.12
453.812	265.12
454.27	253.12
454.729	262.12
455.187	252.12
455.646	250.12
456.104	266.12
456.562	234.12
457.021	257.12
457.479	237.12
457.937	221.12
458.395	257.12
458.854	250.12
459.312	248.12
459.77	253.12
460.228	234.12
460.686	261.12
461.144	241.12
461.602	247.12
462.06	253.12
462.518	245.12
462.976	246.12
463.434	243.12
463.892	255.12
464.35	263.12
464.808	258.12
465.266	264.12
465.724	263.12
466.181	259.12
466.639	272.12
467.097	275.12
467.555	277.12
468.012	284.12
468.47	299.12
468.928	294.12
469.385	290.12
469.843	307.12
470.3	297.12
470.758	287.12
471.215	328.12
471.673	320.12
472.13	301.12
472.588	340.12
473.045	313.12
473.503	334.12
473.96	339.12
474.417	364.12
474.875	350.12
475.332	354.12
475.789	377.12
476.246	389.12
476.704	389.12
477.161	385.12
477.618	413.12
478.075	420.12
478.532	479.12
478.989	487.12
479.446	511.12
479.903	547.12
480.36	608.12
480.817	645.12
481.274	657.12
481.731	755.12
482.188	783.12
482.645	856.12
483.102	905.12
483.558	952.12
484.015	1015.12
484.472	993.12
484.929	1002.12
485.385	953.12
485.842	907.12
486.299	903.12
486.755	816.12
487.212	725.12
487.668	665.12
488.125	618.12
488.582	587.12
489.038	565.12
489.494	526.12
489.951	523.12
490.407	503.12
490.864	504.12
491.32	483.12
491.776	465.12
492.233	497.12
492.689	477.12
493.145	492.12
493.602	457.12
494.058	462.12
494.514	485.12
494.97	484.12
495.426	487.12
495.882	500.12
496.338	495.12
496.794	499.12
497.251	525.12
497.707	507.12
498.163	542.12
498.618	513.12
499.074	504.12
499.53	542.12
499.986	500.12
500.442	547.12
500.898	523.12
501.354	524.12
501.809	551.12
502.265	573.12
502.721	590.12
503.177	591.12
503.632	587.12
504.088	568.12
504.543	611.12
504.999	593.12
505.455	576.12
505.91	528.12
506.366	512.12
506.821	490.12
507.277	490.12
507.732	521.12
508.187	509.12
508.643	501.12
509.098	509.12
509.553	518.12
510.009	515.12
510.464	524.12
510.919	506.12
511.375	527.12
511.83	531.12
512.285	535.12
512.74	540.12
513.195	541.12
513.65	567.12
514.105	583.12
514.56	571.12
515.015	603.12
515.47	594.12
515.925	579.12
516.38	592.12
516.835	596.12
517.29	588.12
517.745	613.12
518.2	575.12
518.655	585.12
519.109	576.12
519.564	557.12
520.019	569.12
520.474	556.12
520.928	547.12
521.383	554.12
521.838	568.12
522.292	539.12
522.747	541.12
523.201	542.12
523.656	542.12
524.11	531.12
524.565	538.12
525.019	506.12
525.474	530.12
525.928	536.12
526.382	526.12
526.837	541.12
527.291	516.12
527.745	521.12
528.2	519.12
528.654	522.12
529.108	525.12
529.562	538.12
530.016	519.12
530.47	530.12
530.925	530.12
531.379	527.12
531.833	549.12
532.287	547.12
532.741	518.12
533.195	538.12
533.649	540.12
534.103	523.12
534.556	535.12
535.01	533.12
535.464	507.12
535.918	531.12
536.372	519.12
536.826	515.12
537.279	514.12
537.733	523.12
538.187	543.12
538.64	529.12
539.094	545.12
539.548	556.12
540.001	552.12
540.455	560.12
540.908	545.12
541.362	561.12
541.815	545.12
542.269	587.12
542.722	576.12
543.175	581.12
543.629	558.12
544.082	584.12
544.536	578.12
544.989	584.12
545.442	565.12
545.895	579.12
546.349	582.12
546.802	580.12
547.255	584.12
547.708	588.12
548.161	618.12
548.614	601.12
549.067	583.12
549.52	603.12
549.973	585.12
550.426	573.12
550.879	581.12
551.332	557.12
551.785	579.12
552.238	582.12
552.691	565.12
553.144	583.12
553.596	603.12
554.049	615.12
554.502	633.12
554.955	619.12
555.407	635.12
555.86	625.12
556.313	625.12
556.765	612.12
557.218	644.12
557.67	622.12
558.123	600.12
558.576	592.12
559.028	603.12
559.48	571.12
559.933	618.12
560.385	597.12
560.838	558.12
561.29	585.12
561.742	539.12
562.195	569.12
562.647	545.12
563.099	563.12
563.551	562.12
564.004	560.12
564.456	552.12
564.908	553.12
565.36	544.12
565.812	527.12
566.264	519.12
566.716	519.12
567.168	505.12
567.62	515.12
568.072	523.12
568.524	482.12
568.976	496.12
569.428	499.12
569.88	505.12
570.332	478.12
570.784	497.12
571.235	509.12
571.687	517.12
572.139	477.12
572.59	508.12
573.042	508.12
573.494	502.12
573.945	507.12
574.397	477.12
574.849	507.12
575.3	504.12
575.752	493.12
576.203	497.12
576.655	519.12
577.106	457.12
577.557	489.12
578.009	480.12
578.46	477.12
578.912	473.12
579.363	485.12
579.814	452.12
580.265	481.12
580.717	480.12
581.168	465.12
581.619	487.12
582.07	479.12
582.521	470.12
582.972	492.12
583.423	503.12
583.875	498.12
584.326	543.12
584.777	555.12
585.227	615.12
585.678	667.12
586.129	733.12
586.58	739.12
587.031	781.12
587.482	797.12
587.933	1026.12
588.384	904.12
588.834	720.12
589.285	576.12
589.736	556.12
590.186	534.12
590.637	565.12
591.088	525.12
591.538	527.12
591.989	519.12
592.439	511.12
592.89	522.12
593.34	510.12
593.791	515.12
594.241	519.12
594.692	513.12
595.142	518.12
595.593	499.12
596.043	517.12
596.493	503.12
596.943	512.12
597.394	533.12
597.844	507.12
598.294	519.12
598.744	515.12
599.195	539.12
599.645	571.12
600.095	581.12
600.545	626.12
600.995	656.12
601.445	659.12
601.895	697.12
602.345	729.12
602.795	729.12
603.245	697.12
603.695	655.12
604.145	645.12
604.594	588.12
605.044	534.12
605.494	531.12
605.944	525.12
606.393	511.12
606.843	486.12
607.293	518.12
607.743	527.12
608.192	541.12
608.642	508.12
609.091	500.12
609.541	491.12
609.99	479.12
610.44	477.12
610.889	503.12
611.339	487.12
611.788	501.12
612.238	473.12
612.687	492.12
613.136	508.12
613.586	497.12
614.035	533.12
614.484	523.12
614.933	543.12
615.383	516.12
615.832	478.12
616.281	473.12
616.73	473.12
617.179	460.12
617.628	451.12
618.077	461.12
618.526	455.12
618.975	443.12
619.424	444.12
619.873	470.12
620.322	440.12
620.771	418.12
621.22	439.12
621.669	418.12
622.118	413.12
622.567	425.12
623.015	401.12
623.464	417.12
623.913	419.12
624.361	413.12
624.81	391.12
625.259	415.12
625.707	405.12
626.156	405.12
626.604	407.12
627.053	397.12
627.501	397.12
627.95	391.12
628.398	423.12
628.847	419.12
629.295	410.12
629.744	401.12
630.192	437.12
630.64	441.12
631.089	475.12
631.537	503.12
631.985	503.12
632.433	518.12
632.881	509.12
633.33	589.12
633.778	681.12
634.226	527.12
634.674	489.12
635.122	444.12
635.57	475.12
636.018	522.12
636.466	458.12
636.914	410.12
637.362	402.12
637.81	389.12
638.258	437.12
638.705	416.12
639.153	426.12
639.601	418.12
640.049	448.12
640.497	429.12
640.944	455.12
641.392	441.12
641.84	395.12
642.287	398.12
642.735	377.12
643.182	399.12
643.63	401.12
644.078	398.12
644.525	408.12
644.973	401.12
645.42	425.12
645.867	421.12
646.315	411.12
646.762	430.12
647.21	444.12
647.657	475.12
648.104	472.12
648.551	501.12
648.999	516.12
649.446	556.12
649.893	586.12
650.34	717.12
650.787	807.12
651.234	1092.12
651.682	1347.12
652.129	1875.12
652.576	2679.12
653.023	3765.12
653.47	4667.12
653.917	5153.12
654.363	5501.12
654.81	5807.12
655.257	6080.12
655.704	4471.12
656.151	2668.12
656.598	1770.12
657.044	1232.12
657.491	940.12
657.938	795.12
658.385	682.12
658.831	579.12
659.278	541.12
659.724	509.12
660.171	461.12
660.618	420.12
661.064	423.12
661.511	412.12
661.957	413.12
662.404	402.12
662.85	380.12
663.296	399.12
663.743	363.12
664.189	397.12
664.635	379.12
665.082	359.12
665.528	365.12
665.974	359.12
666.42	353.12
666.867	367.12
667.313	368.12
667.759	387.12
668.205	399.12
668.651	388.12
669.097	403.12
669.543	431.12
669.989	421.12
670.435	354.12
670.881	356.12
671.327	332.12
671.773	339.12
672.219	363.12
672.665	397.12
673.11	403.12
673.556	396.12
674.002	434.12
674.448	447.12
674.893	372.12
675.339	335.12
675.785	321.12
676.23	312.12
676.676	280.12
677.122	318.12
677.567	304.12
678.013	291.12
678.458	253.12
678.904	300.12
679.349	277.12
679.794	311.12
680.24	287.12
680.685	279.12
681.131	280.12
681.576	282.12
682.021	268.12
682.466	289.12
682.912	282.12
683.357	283.12
683.802	302.12
684.247	325.12
684.692	334.12
685.137	336.12
685.583	351.12
686.028	360.12
686.473	367.12
686.918	311.12
687.363	306.12
687.807	287.12
688.252	294.12
688.697	287.12
689.142	267.12
689.587	271.12
690.032	281.12
690.477	274.12
690.921	275.12
691.366	297.12
691.811	320.12
692.255	314.12
692.7	347.12
693.145	433.12
693.589	618.12
694.034	797.12
694.478	902.12
694.923	842.12
695.367	998.12
695.812	901.12
696.256	425.12
696.701	294.12
697.145	289.12
697.59	282.12
698.034	267.12
698.478	278.12
698.922	275.12
699.367	270.12
699.811	291.12
700.255	287.12
700.699	299.12
701.143	334.12
701.588	333.12
702.032	362.12
702.476	354.12
702.92	379.12
703.364	404.12
703.808	579.12
704.252	763.12
704.696	901.12
705.14	825.12
705.584	991.12
706.027	783.12
706.471	410.12
706.915	298.12
707.359	291.12
707.803	263.12
708.246	265.12
708.69	243.12
709.134	269.12
709.577	264.12
710.021	247.12
710.465	239.12
710.908	247.12
711.352	245.12
711.795	274.12
712.239	282.12
712.682	281.12
713.126	289.12
713.569	321.12
714.012	296.12
714.456	272.12
714.899	255.12
715.342	214.12
715.786	219.12
716.229	228.12
716.672	236.12
717.115	225.12
717.558	231.12
718.002	237.12
718.445	223.12
718.888	237.12
719.331	248.12
719.774	271.12
720.217	256.12
720.66	240.12
721.103	231.12
721.546	229.12
721.989	224.12
722.432	233.12
722.874	221.12
723.317	193.12
723.76	231.12
724.203	257.12
724.645	290.12
725.088	360.12
725.531	379.12
725.974	364.12
726.416	381.12
726.859	281.12
727.301	243.12
727.744	201.12
728.187	230.12
728.629	211.12
729.071	226.12
729.514	237.12
729.956	243.12
730.399	232.12
730.841	219.12
731.283	241.12
731.726	215.12
732.168	209.12
732.61	233.12
733.053	242.12
733.495	264.12
733.937	292.12
734.379	329.12
734.821	349.12
735.263	455.12
735.705	765.12
736.148	1179.12
736.59	1399.12
737.032	1261.12
737.474	1323.12
737.916	644.12
738.357	363.12
738.799	256.12
739.241	261.12
739.683	257.12
740.125	269.12
740.567	251.12
741.008	268.12
741.45	281.12
741.892	275.12
742.334	287.12
742.775	251.12
743.217	267.12
743.658	257.12
744.1	257.12
744.542	246.12
744.983	270.12
745.425	278.12
745.866	287.12
746.307	249.12
746.749	262.12
747.19	291.12
747.632	439.12
748.073	825.12
748.514	1238.12
748.956	1515.12
749.397	2003.12
749.838	1591.12
750.279	1348.12
750.72	1011.12
751.162	475.12
751.603	275.12
752.044	223.12
752.485	187.12
752.926	192.12
753.367	182.12
753.808	191.12
754.249	183.12
754.69	187.12
755.131	183.12
755.572	200.12
756.013	176.12
756.453	183.12
756.894	202.12
