Data from 20170802-ORNL-NYSim-Air_HRD10391_10-38-26-662.txt Node
Date: Wed Aug 02 10:38:26 EDT 2017
User: Ender
Spectrometer: HR+D1039
Trigger mode: 0
Integration Time (sec): 1.100000E-3
Scans to average: 1
Electric dark correction enabled: true
Nonlinearity correction enabled: false
Boxcar width: 0
XAxis mode: Wavelengths
Number of Pixels in Spectrum: 2048
>>>>>Begin Spectral Data<<<<<
187.836	-3.12
188.309	-3.12
188.782	-3.12
189.255	-5.12
189.728	-1.12
190.201	1.88
190.674	-17.12
191.147	-8.12
191.619	-11.12
192.092	-17.12
192.565	12.88
193.038	4.88
193.511	3.88
193.984	8.88
194.456	0.88
194.929	12.88
195.402	-6.12
195.874	22.88
196.347	20.88
196.82	24.88
197.292	11.88
197.765	37.88
198.237	32.88
198.71	52.88
199.182	50.88
199.655	48.88
200.127	48.88
200.6	50.88
201.072	47.88
201.544	62.88
202.017	66.88
202.489	62.88
202.961	69.88
203.433	65.88
203.906	71.88
204.378	68.88
204.85	70.88
205.322	90.88
205.794	68.88
206.266	60.88
206.739	90.88
207.211	93.88
207.683	70.88
208.155	76.88
208.627	77.88
209.099	86.88
209.57	76.88
210.042	85.88
210.514	84.88
210.986	68.88
211.458	99.88
211.93	74.88
212.402	94.88
212.873	89.88
213.345	91.88
213.817	75.88
214.288	79.88
214.76	87.88
215.232	85.88
215.703	101.88
216.175	73.88
216.646	82.88
217.118	77.88
217.589	78.88
218.061	92.88
218.532	70.88
219.004	75.88
219.475	66.88
219.946	76.88
220.418	70.88
220.889	82.88
221.36	80.88
221.832	67.88
222.303	78.88
222.774	96.88
223.245	84.88
223.717	65.88
224.188	73.88
224.659	78.88
225.13	70.88
225.601	62.88
226.072	57.88
226.543	75.88
227.014	55.88
227.485	77.88
227.956	73.88
228.427	84.88
228.898	68.88
229.369	71.88
229.839	74.88
230.31	69.88
230.781	65.88
231.252	74.88
231.722	79.88
232.193	81.88
232.664	84.88
233.135	94.88
233.605	72.88
234.076	81.88
234.546	80.88
235.017	82.88
235.487	86.88
235.958	77.88
236.428	81.88
236.899	85.88
237.369	96.88
237.84	80.88
238.31	83.88
238.78	84.88
239.251	78.88
239.721	88.88
240.191	70.88
240.662	88.88
241.132	96.88
241.602	62.88
242.072	95.88
242.542	97.88
243.013	70.88
243.483	74.88
243.953	76.88
244.423	78.88
244.893	77.88
245.363	80.88
245.833	84.88
246.303	86.88
246.773	88.88
247.243	92.88
247.712	71.88
248.182	98.88
248.652	87.88
249.122	106.88
249.592	110.88
250.061	139.88
250.531	152.88
251.001	139.88
251.471	140.88
251.94	110.88
252.41	71.88
252.879	98.88
253.349	82.88
253.818	91.88
254.288	83.88
254.757	103.88
255.227	101.88
255.696	86.88
256.166	85.88
256.635	93.88
257.105	80.88
257.574	96.88
258.043	94.88
258.513	90.88
258.982	98.88
259.451	100.88
259.92	112.88
260.389	136.88
260.859	97.88
261.328	73.88
261.797	109.88
262.266	103.88
262.735	102.88
263.204	85.88
263.673	89.88
264.142	86.88
264.611	101.88
265.08	85.88
265.549	84.88
266.018	62.88
266.487	81.88
266.955	80.88
267.424	107.88
267.893	105.88
268.362	100.88
268.83	72.88
269.299	85.88
269.768	83.88
270.236	90.88
270.705	87.88
271.174	98.88
271.642	97.88
272.111	101.88
272.579	111.88
273.048	125.88
273.516	126.88
273.985	141.88
274.453	112.88
274.922	104.88
275.39	94.88
275.858	81.88
276.327	75.88
276.795	88.88
277.263	108.88
277.731	92.88
278.2	118.88
278.668	100.88
279.136	108.88
279.604	109.88
280.072	91.88
280.54	108.88
281.008	79.88
281.477	86.88
281.945	94.88
282.413	100.88
282.881	92.88
283.348	99.88
283.816	91.88
284.284	108.88
284.752	97.88
285.22	90.88
285.688	90.88
286.156	97.88
286.623	148.88
287.091	201.88
287.559	150.88
288.026	112.88
288.494	104.88
288.962	98.88
289.429	92.88
289.897	108.88
290.364	89.88
290.832	92.88
291.3	85.88
291.767	85.88
292.234	94.88
292.702	95.88
293.169	107.88
293.637	101.88
294.104	100.88
294.571	117.88
295.039	90.88
295.506	96.88
295.973	102.88
296.44	102.88
296.908	93.88
297.375	121.88
297.842	93.88
298.309	96.88
298.776	112.88
299.243	109.88
299.71	109.88
300.177	92.88
300.644	121.88
301.111	103.88
301.578	117.88
302.045	114.88
302.512	102.88
302.979	112.88
303.446	111.88
303.913	125.88
304.379	97.88
304.846	105.88
305.313	121.88
305.78	129.88
306.246	126.88
306.713	120.88
307.18	120.88
307.646	131.88
308.113	131.88
308.579	111.88
309.046	125.88
309.512	115.88
309.979	119.88
310.445	117.88
310.912	100.88
311.378	104.88
311.845	102.88
312.311	122.88
312.777	116.88
313.244	120.88
313.71	123.88
314.176	105.88
314.642	140.88
315.109	132.88
315.575	133.88
316.041	121.88
316.507	127.88
316.973	138.88
317.439	105.88
317.905	112.88
318.371	118.88
318.837	132.88
319.303	111.88
319.769	135.88
320.235	110.88
320.701	133.88
321.167	133.88
321.633	128.88
322.099	165.88
322.564	177.88
323.03	163.88
323.496	133.88
323.962	130.88
324.427	141.88
324.893	127.88
325.359	143.88
325.824	137.88
326.29	123.88
326.755	106.88
327.221	112.88
327.686	131.88
328.152	127.88
328.617	127.88
329.083	126.88
329.548	125.88
330.014	102.88
330.479	133.88
330.944	154.88
331.41	144.88
331.875	154.88
332.34	158.88
332.805	156.88
333.271	168.88
333.736	192.88
334.201	191.88
334.666	170.88
335.131	166.88
335.596	141.88
336.061	170.88
336.526	161.88
336.991	152.88
337.456	168.88
337.921	134.88
338.386	133.88
338.851	124.88
339.316	122.88
339.781	136.88
340.246	123.88
340.711	128.88
341.175	136.88
341.64	128.88
342.105	128.88
342.569	151.88
343.034	142.88
343.499	156.88
343.963	148.88
344.428	142.88
344.893	151.88
345.357	132.88
345.822	139.88
346.286	151.88
346.751	145.88
347.215	129.88
347.679	128.88
348.144	132.88
348.608	143.88
349.073	139.88
349.537	166.88
350.001	168.88
350.465	161.88
350.93	153.88
351.394	148.88
351.858	150.88
352.322	150.88
352.786	155.88
353.25	169.88
353.715	166.88
354.179	164.88
354.643	140.88
355.107	165.88
355.571	177.88
356.035	193.88
356.498	153.88
356.962	172.88
357.426	184.88
357.89	149.88
358.354	146.88
358.818	145.88
359.281	163.88
359.745	161.88
360.209	162.88
360.673	169.88
361.136	177.88
361.6	161.88
362.064	166.88
362.527	178.88
362.991	178.88
363.454	154.88
363.918	180.88
364.381	166.88
364.845	156.88
365.308	136.88
365.772	161.88
366.235	164.88
366.698	162.88
367.162	180.88
367.625	194.88
368.088	172.88
368.552	170.88
369.015	160.88
369.478	185.88
369.941	174.88
370.404	182.88
370.867	184.88
371.331	191.88
371.794	209.88
372.257	209.88
372.72	203.88
373.183	207.88
373.646	187.88
374.109	193.88
374.572	203.88
375.035	247.88
375.497	222.88
375.96	188.88
376.423	186.88
376.886	173.88
377.349	188.88
377.811	186.88
378.274	190.88
378.737	175.88
379.199	194.88
379.662	194.88
380.125	182.88
380.587	195.88
381.05	217.88
381.512	221.88
381.975	212.88
382.437	212.88
382.9	202.88
383.362	177.88
383.825	233.88
384.287	238.88
384.75	258.88
385.212	234.88
385.674	228.88
386.136	214.88
386.599	216.88
387.061	212.88
387.523	209.88
387.985	222.88
388.447	213.88
388.91	244.88
389.372	289.88
389.834	285.88
390.296	237.88
390.758	232.88
391.22	261.88
391.682	271.88
392.144	374.88
392.606	352.88
393.068	247.88
393.529	232.88
393.991	235.88
394.453	255.88
394.915	236.88
395.377	281.88
395.838	296.88
396.3	249.88
396.762	232.88
397.224	204.88
397.685	212.88
398.147	222.88
398.608	229.88
399.07	220.88
399.531	222.88
399.993	202.88
400.454	205.88
400.916	222.88
401.377	202.88
401.839	213.88
402.3	208.88
402.762	228.88
403.223	230.88
403.684	252.88
404.145	238.88
404.607	243.88
405.068	242.88
405.529	253.88
405.99	262.88
406.451	227.88
406.913	225.88
407.374	235.88
407.835	238.88
408.296	227.88
408.757	269.88
409.218	250.88
409.679	256.88
410.14	257.88
410.601	267.88
411.062	280.88
411.522	278.88
411.983	302.88
412.444	275.88
412.905	256.88
413.366	258.88
413.826	262.88
414.287	301.88
414.748	318.88
415.208	356.88
415.669	289.88
416.13	258.88
416.59	271.88
417.051	291.88
417.511	288.88
417.972	310.88
418.432	303.88
418.893	360.88
419.353	322.88
419.814	299.88
420.274	255.88
420.734	256.88
421.195	247.88
421.655	277.88
422.115	266.88
422.576	260.88
423.036	260.88
423.496	262.88
423.956	288.88
424.416	283.88
424.876	312.88
425.336	351.88
425.797	334.88
426.257	307.88
426.717	308.88
427.177	305.88
427.637	294.88
428.097	326.88
428.556	328.88
429.016	339.88
429.476	350.88
429.936	345.88
430.396	338.88
430.856	358.88
431.315	338.88
431.775	349.88
432.235	372.88
432.694	371.88
433.154	384.88
433.614	360.88
434.073	350.88
434.533	340.88
434.993	328.88
435.452	353.88
435.912	314.88
436.371	311.88
436.83	311.88
437.29	307.88
437.749	302.88
438.209	279.88
438.668	320.88
439.127	305.88
439.587	306.88
440.046	291.88
440.505	291.88
440.964	290.88
441.424	288.88
441.883	336.88
442.342	285.88
442.801	284.88
443.26	296.88
443.719	287.88
444.178	306.88
444.637	297.88
445.096	287.88
445.555	280.88
446.014	283.88
446.473	301.88
446.932	283.88
447.391	293.88
447.849	296.88
448.308	307.88
448.767	285.88
449.226	301.88
449.685	287.88
450.143	318.88
450.602	292.88
451.061	302.88
451.519	275.88
451.978	310.88
452.436	315.88
452.895	293.88
453.353	320.88
453.812	292.88
454.27	304.88
454.729	286.88
455.187	287.88
455.646	310.88
456.104	294.88
456.562	313.88
457.021	301.88
457.479	290.88
457.937	291.88
458.395	306.88
458.854	318.88
459.312	302.88
459.77	312.88
460.228	301.88
460.686	295.88
461.144	301.88
461.602	313.88
462.06	293.88
462.518	302.88
462.976	331.88
463.434	302.88
463.892	316.88
464.35	336.88
464.808	330.88
465.266	318.88
465.724	338.88
466.181	354.88
466.639	330.88
467.097	328.88
467.555	339.88
468.012	345.88
468.47	350.88
468.928	365.88
469.385	338.88
469.843	329.88
470.3	371.88
470.758	370.88
471.215	371.88
471.673	389.88
472.13	416.88
472.588	404.88
473.045	388.88
473.503	415.88
473.96	406.88
474.417	428.88
474.875	412.88
475.332	461.88
475.789	452.88
476.246	476.88
476.704	498.88
477.161	493.88
477.618	479.88
478.075	539.88
478.532	606.88
478.989	612.88
479.446	649.88
479.903	692.88
480.36	737.88
480.817	806.88
481.274	854.88
481.731	904.88
482.188	959.88
482.645	1058.88
483.102	1143.88
483.558	1176.88
484.015	1266.88
484.472	1271.88
484.929	1238.88
485.385	1194.88
485.842	1154.88
486.299	1134.88
486.755	1027.88
487.212	914.88
487.668	825.88
488.125	785.88
488.582	748.88
489.038	729.88
489.494	666.88
489.951	618.88
490.407	646.88
490.864	606.88
491.32	625.88
491.776	581.88
492.233	589.88
492.689	586.88
493.145	589.88
493.602	580.88
494.058	578.88
494.514	586.88
494.97	602.88
495.426	598.88
495.882	624.88
496.338	605.88
496.794	612.88
497.251	633.88
497.707	639.88
498.163	639.88
498.618	655.88
499.074	640.88
499.53	634.88
499.986	662.88
500.442	668.88
500.898	650.88
501.354	640.88
501.809	673.88
502.265	682.88
502.721	658.88
503.177	715.88
503.632	679.88
504.088	668.88
504.543	744.88
504.999	673.88
505.455	638.88
505.91	609.88
506.366	614.88
506.821	605.88
507.277	620.88
507.732	625.88
508.187	604.88
508.643	622.88
509.098	622.88
509.553	663.88
510.009	658.88
510.464	665.88
510.919	648.88
511.375	652.88
511.83	680.88
512.285	681.88
512.74	694.88
513.195	681.88
513.65	712.88
514.105	722.88
514.56	713.88
515.015	720.88
515.47	760.88
515.925	725.88
516.38	697.88
516.835	699.88
517.29	718.88
517.745	751.88
518.2	720.88
518.655	702.88
519.109	678.88
519.564	710.88
520.019	681.88
520.474	701.88
520.928	678.88
521.383	679.88
521.838	674.88
522.292	676.88
522.747	692.88
523.201	637.88
523.656	643.88
524.11	667.88
524.565	647.88
525.019	655.88
525.474	686.88
525.928	670.88
526.382	626.88
526.837	644.88
527.291	660.88
527.745	625.88
528.2	662.88
528.654	684.88
529.108	632.88
529.562	620.88
530.016	632.88
530.47	638.88
530.925	635.88
531.379	646.88
531.833	688.88
532.287	635.88
532.741	620.88
533.195	642.88
533.649	659.88
534.103	638.88
534.556	641.88
535.01	644.88
535.464	634.88
535.918	640.88
536.372	652.88
536.826	642.88
537.279	635.88
537.733	632.88
538.187	657.88
538.64	637.88
539.094	648.88
539.548	626.88
540.001	659.88
540.455	685.88
540.908	662.88
541.362	658.88
541.815	676.88
542.269	715.88
542.722	719.88
543.175	680.88
543.629	705.88
544.082	709.88
544.536	701.88
544.989	707.88
545.442	705.88
545.895	700.88
546.349	703.88
546.802	718.88
547.255	700.88
547.708	741.88
548.161	718.88
548.614	743.88
549.067	706.88
549.52	742.88
549.973	713.88
550.426	745.88
550.879	702.88
551.332	686.88
551.785	697.88
552.238	730.88
552.691	736.88
553.144	722.88
553.596	754.88
554.049	764.88
554.502	736.88
554.955	782.88
555.407	791.88
555.86	797.88
556.313	760.88
556.765	745.88
557.218	747.88
557.67	754.88
558.123	758.88
558.576	728.88
559.028	729.88
559.48	750.88
559.933	746.88
560.385	738.88
560.838	742.88
561.29	686.88
561.742	722.88
562.195	683.88
562.647	706.88
563.099	676.88
563.551	678.88
564.004	695.88
564.456	678.88
564.908	659.88
565.36	634.88
565.812	629.88
566.264	644.88
566.716	636.88
567.168	649.88
567.62	624.88
568.072	612.88
568.524	608.88
568.976	614.88
569.428	616.88
569.88	617.88
570.332	587.88
570.784	613.88
571.235	608.88
571.687	614.88
572.139	610.88
572.59	596.88
573.042	600.88
573.494	602.88
573.945	586.88
574.397	625.88
574.849	590.88
575.3	590.88
575.752	576.88
576.203	606.88
576.655	594.88
577.106	558.88
577.557	592.88
578.009	593.88
578.46	587.88
578.912	580.88
579.363	576.88
579.814	584.88
580.265	581.88
580.717	573.88
581.168	566.88
581.619	589.88
582.07	593.88
582.521	585.88
582.972	598.88
583.423	607.88
583.875	584.88
584.326	592.88
584.777	672.88
585.227	725.88
585.678	770.88
586.129	823.88
586.58	861.88
587.031	861.88
587.482	869.88
587.933	1077.88
588.384	1043.88
588.834	871.88
589.285	692.88
589.736	644.88
590.186	652.88
590.637	650.88
591.088	664.88
591.538	636.88
591.989	630.88
592.439	601.88
592.89	639.88
593.34	611.88
593.791	638.88
594.241	624.88
594.692	610.88
595.142	624.88
595.593	601.88
596.043	607.88
596.493	612.88
596.943	630.88
597.394	640.88
597.844	628.88
598.294	633.88
598.744	614.88
599.195	660.88
599.645	679.88
600.095	733.88
600.545	746.88
600.995	784.88
601.445	828.88
601.895	881.88
602.345	880.88
602.795	861.88
603.245	875.88
603.695	794.88
604.145	771.88
604.594	722.88
605.044	688.88
605.494	671.88
605.944	607.88
606.393	567.88
606.843	575.88
607.293	623.88
607.743	600.88
608.192	617.88
608.642	607.88
609.091	625.88
609.541	588.88
609.99	616.88
610.44	599.88
610.889	590.88
611.339	583.88
611.788	611.88
612.238	578.88
612.687	597.88
613.136	596.88
613.586	594.88
614.035	626.88
614.484	630.88
614.933	606.88
615.383	582.88
615.832	571.88
616.281	559.88
616.73	578.88
617.179	561.88
617.628	523.88
618.077	545.88
618.526	547.88
618.975	506.88
619.424	510.88
619.873	531.88
620.322	514.88
620.771	542.88
621.22	537.88
621.669	504.88
622.118	477.88
622.567	494.88
623.015	514.88
623.464	500.88
623.913	499.88
624.361	471.88
624.81	475.88
625.259	496.88
625.707	460.88
626.156	467.88
626.604	469.88
627.053	508.88
627.501	511.88
627.95	483.88
628.398	484.88
628.847	477.88
629.295	499.88
629.744	490.88
630.192	518.88
630.64	497.88
631.089	561.88
631.537	557.88
631.985	549.88
632.433	577.88
632.881	579.88
633.33	618.88
633.778	751.88
634.226	579.88
634.674	515.88
635.122	495.88
635.57	546.88
636.018	581.88
636.466	539.88
636.914	462.88
637.362	482.88
637.81	480.88
638.258	476.88
638.705	486.88
639.153	497.88
639.601	513.88
640.049	516.88
640.497	503.88
640.944	533.88
641.392	513.88
641.84	510.88
642.287	475.88
642.735	494.88
643.182	435.88
643.63	496.88
644.078	488.88
644.525	502.88
644.973	486.88
645.42	503.88
645.867	506.88
646.315	496.88
646.762	531.88
647.21	550.88
647.657	556.88
648.104	617.88
648.551	586.88
648.999	642.88
649.446	686.88
649.893	763.88
650.34	861.88
650.787	1038.88
651.234	1228.88
651.682	1676.88
652.129	2361.88
652.576	3312.88
653.023	4714.88
653.47	5770.88
653.917	6457.88
654.363	6795.88
654.81	7147.88
655.257	7499.88
655.704	5632.88
656.151	3320.88
656.598	2150.88
657.044	1518.88
657.491	1217.88
657.938	990.88
658.385	824.88
658.831	732.88
659.278	681.88
659.724	602.88
660.171	551.88
660.618	525.88
661.064	523.88
661.511	482.88
661.957	464.88
662.404	450.88
662.85	452.88
663.296	439.88
663.743	446.88
664.189	424.88
664.635	433.88
665.082	431.88
665.528	393.88
665.974	410.88
666.42	424.88
666.867	419.88
667.313	422.88
667.759	432.88
668.205	449.88
668.651	449.88
669.097	456.88
669.543	472.88
669.989	484.88
670.435	403.88
670.881	408.88
671.327	384.88
671.773	400.88
672.219	450.88
672.665	469.88
673.11	492.88
673.556	487.88
674.002	498.88
674.448	534.88
674.893	478.88
675.339	424.88
675.785	413.88
676.23	369.88
676.676	368.88
677.122	344.88
677.567	341.88
678.013	319.88
678.458	330.88
678.904	320.88
679.349	304.88
679.794	323.88
680.24	316.88
680.685	351.88
681.131	308.88
681.576	340.88
682.021	312.88
682.466	326.88
682.912	321.88
683.357	319.88
683.802	353.88
684.247	386.88
684.692	404.88
685.137	422.88
685.583	441.88
686.028	433.88
686.473	431.88
686.918	400.88
687.363	350.88
687.807	334.88
688.252	348.88
688.697	320.88
689.142	305.88
689.587	324.88
690.032	318.88
690.477	308.88
690.921	315.88
691.366	332.88
691.811	360.88
692.255	394.88
692.7	416.88
693.145	524.88
693.589	751.88
694.034	1006.88
694.478	1105.88
694.923	1036.88
695.367	1210.88
695.812	1094.88
696.256	499.88
696.701	343.88
697.145	298.88
697.59	312.88
698.034	294.88
698.478	293.88
698.922	315.88
699.367	314.88
699.811	310.88
700.255	313.88
700.699	356.88
701.143	403.88
701.588	407.88
702.032	435.88
702.476	435.88
702.92	427.88
703.364	486.88
703.808	693.88
704.252	914.88
704.696	1046.88
705.14	975.88
705.584	1194.88
706.027	983.88
706.471	488.88
706.915	371.88
707.359	315.88
707.803	300.88
708.246	295.88
708.69	281.88
709.134	286.88
709.577	302.88
710.021	312.88
710.465	274.88
710.908	287.88
711.352	307.88
711.795	327.88
712.239	323.88
712.682	366.88
713.126	344.88
713.569	387.88
714.012	358.88
714.456	296.88
714.899	290.88
715.342	290.88
715.786	284.88
716.229	256.88
716.672	265.88
717.115	249.88
717.558	256.88
718.002	270.88
718.445	267.88
718.888	284.88
719.331	287.88
719.774	295.88
720.217	281.88
720.66	297.88
721.103	278.88
721.546	253.88
721.989	263.88
722.432	238.88
722.874	241.88
723.317	274.88
723.76	237.88
724.203	284.88
724.645	336.88
725.088	419.88
725.531	426.88
725.974	430.88
726.416	459.88
726.859	336.88
727.301	266.88
727.744	241.88
728.187	240.88
728.629	245.88
729.071	244.88
729.514	268.88
729.956	268.88
730.399	256.88
730.841	273.88
731.283	264.88
731.726	261.88
732.168	255.88
732.61	252.88
733.053	300.88
733.495	327.88
733.937	319.88
734.379	346.88
734.821	416.88
735.263	559.88
735.705	933.88
736.148	1496.88
736.59	1660.88
737.032	1559.88
737.474	1636.88
737.916	854.88
738.357	428.88
738.799	315.88
739.241	287.88
739.683	289.88
740.125	289.88
740.567	291.88
741.008	286.88
741.45	320.88
741.892	317.88
742.334	324.88
742.775	334.88
743.217	298.88
743.658	306.88
744.1	269.88
744.542	280.88
744.983	312.88
745.425	340.88
745.866	360.88
746.307	315.88
746.749	313.88
747.19	355.88
747.632	588.88
748.073	1012.88
748.514	1542.88
748.956	1872.88
749.397	2476.88
749.838	2006.88
750.279	1656.88
750.72	1254.88
751.162	572.88
751.603	338.88
752.044	260.88
752.485	242.88
752.926	249.88
753.367	224.88
753.808	220.88
754.249	220.88
754.69	230.88
755.131	210.88
755.572	201.88
