Data from 20170802-ORNL-NYSim-Air_HRD10391_10-38-33-665.txt Node
Date: Wed Aug 02 10:38:33 EDT 2017
User: Ender
Spectrometer: HR+D1039
Trigger mode: 0
Integration Time (sec): 1.100000E-3
Scans to average: 1
Electric dark correction enabled: true
Nonlinearity correction enabled: false
Boxcar width: 0
XAxis mode: Wavelengths
Number of Pixels in Spectrum: 2048
>>>>>Begin Spectral Data<<<<<
187.836	5.31
188.309	5.31
188.782	5.31
189.255	11.31
189.728	-7.69
190.201	0.31
190.674	-0.69
191.147	-8.69
191.619	-6.69
192.092	-12.69
192.565	-16.69
193.038	-8.69
193.511	-2.69
193.984	-0.69
194.456	4.31
194.929	1.31
195.402	13.31
195.874	29.31
196.347	19.31
196.82	22.31
197.292	21.31
197.765	28.31
198.237	9.31
198.71	37.31
199.182	54.31
199.655	43.31
200.127	48.31
200.6	65.31
201.072	59.31
201.544	66.31
202.017	72.31
202.489	72.31
202.961	70.31
203.433	74.31
203.906	58.31
204.378	77.31
204.85	77.31
205.322	65.31
205.794	86.31
206.266	71.31
206.739	78.31
207.211	102.31
207.683	86.31
208.155	89.31
208.627	94.31
209.099	82.31
209.57	97.31
210.042	87.31
210.514	77.31
210.986	80.31
211.458	91.31
211.93	89.31
212.402	81.31
212.873	79.31
213.345	76.31
213.817	87.31
214.288	87.31
214.76	88.31
215.232	89.31
215.703	82.31
216.175	73.31
216.646	84.31
217.118	76.31
217.589	79.31
218.061	57.31
218.532	69.31
219.004	70.31
219.475	77.31
219.946	77.31
220.418	87.31
220.889	65.31
221.36	80.31
221.832	85.31
222.303	85.31
222.774	91.31
223.245	96.31
223.717	84.31
224.188	84.31
224.659	74.31
225.13	79.31
225.601	83.31
226.072	78.31
226.543	79.31
227.014	91.31
227.485	84.31
227.956	74.31
228.427	46.31
228.898	77.31
229.369	70.31
229.839	69.31
230.31	84.31
230.781	75.31
231.252	83.31
231.722	68.31
232.193	81.31
232.664	86.31
233.135	80.31
233.605	85.31
234.076	78.31
234.546	73.31
235.017	95.31
235.487	89.31
235.958	88.31
236.428	82.31
236.899	81.31
237.369	90.31
237.84	87.31
238.31	82.31
238.78	90.31
239.251	72.31
239.721	99.31
240.191	93.31
240.662	90.31
241.132	65.31
241.602	100.31
242.072	93.31
242.542	88.31
243.013	89.31
243.483	92.31
243.953	70.31
244.423	93.31
244.893	70.31
245.363	88.31
245.833	86.31
246.303	78.31
246.773	71.31
247.243	96.31
247.712	83.31
248.182	87.31
248.652	91.31
249.122	96.31
249.592	130.31
250.061	137.31
250.531	163.31
251.001	129.31
251.471	128.31
251.94	104.31
252.41	105.31
252.879	83.31
253.349	96.31
253.818	77.31
254.288	83.31
254.757	95.31
255.227	76.31
255.696	104.31
256.166	79.31
256.635	90.31
257.105	90.31
257.574	78.31
258.043	85.31
258.513	97.31
258.982	135.31
259.451	103.31
259.92	97.31
260.389	97.31
260.859	93.31
261.328	105.31
261.797	101.31
262.266	113.31
262.735	99.31
263.204	88.31
263.673	94.31
264.142	93.31
264.611	85.31
265.08	89.31
265.549	85.31
266.018	86.31
266.487	99.31
266.955	89.31
267.424	84.31
267.893	81.31
268.362	103.31
268.83	88.31
269.299	93.31
269.768	106.31
270.236	105.31
270.705	116.31
271.174	91.31
271.642	77.31
272.111	95.31
272.579	111.31
273.048	121.31
273.516	127.31
273.985	127.31
274.453	112.31
274.922	120.31
275.39	93.31
275.858	98.31
276.327	77.31
276.795	76.31
277.263	102.31
277.731	106.31
278.2	112.31
278.668	131.31
279.136	115.31
279.604	109.31
280.072	110.31
280.54	102.31
281.008	93.31
281.477	80.31
281.945	99.31
282.413	102.31
282.881	107.31
283.348	93.31
283.816	115.31
284.284	115.31
284.752	100.31
285.22	86.31
285.688	91.31
286.156	122.31
286.623	159.31
287.091	231.31
287.559	144.31
288.026	128.31
288.494	95.31
288.962	101.31
289.429	90.31
289.897	87.31
290.364	102.31
290.832	86.31
291.3	81.31
291.767	101.31
292.234	97.31
292.702	84.31
293.169	109.31
293.637	97.31
294.104	106.31
294.571	105.31
295.039	98.31
295.506	110.31
295.973	87.31
296.44	95.31
296.908	105.31
297.375	115.31
297.842	112.31
298.309	103.31
298.776	101.31
299.243	103.31
299.71	97.31
300.177	100.31
300.644	107.31
301.111	100.31
301.578	102.31
302.045	115.31
302.512	110.31
302.979	103.31
303.446	113.31
303.913	109.31
304.379	116.31
304.846	116.31
305.313	111.31
305.78	111.31
306.246	116.31
306.713	126.31
307.18	115.31
307.646	112.31
308.113	108.31
308.579	117.31
309.046	117.31
309.512	132.31
309.979	119.31
310.445	116.31
310.912	113.31
311.378	110.31
311.845	117.31
312.311	110.31
312.777	105.31
313.244	105.31
313.71	110.31
314.176	113.31
314.642	117.31
315.109	99.31
315.575	126.31
316.041	113.31
316.507	125.31
316.973	128.31
317.439	143.31
317.905	130.31
318.371	111.31
318.837	122.31
319.303	108.31
319.769	107.31
320.235	125.31
320.701	122.31
321.167	134.31
321.633	144.31
322.099	166.31
322.564	190.31
323.03	174.31
323.496	144.31
323.962	158.31
324.427	126.31
324.893	125.31
325.359	134.31
325.824	124.31
326.29	129.31
326.755	118.31
327.221	124.31
327.686	111.31
328.152	113.31
328.617	134.31
329.083	138.31
329.548	130.31
330.014	126.31
330.479	122.31
330.944	130.31
331.41	138.31
331.875	146.31
332.34	141.31
332.805	161.31
333.271	159.31
333.736	196.31
334.201	172.31
334.666	161.31
335.131	186.31
335.596	155.31
336.061	147.31
336.526	161.31
336.991	160.31
337.456	148.31
337.921	153.31
338.386	143.31
338.851	117.31
339.316	129.31
339.781	127.31
340.246	124.31
340.711	137.31
341.175	125.31
341.64	140.31
342.105	120.31
342.569	134.31
343.034	129.31
343.499	154.31
343.963	142.31
344.428	129.31
344.893	133.31
345.357	127.31
345.822	136.31
346.286	150.31
346.751	141.31
347.215	137.31
347.679	150.31
348.144	149.31
348.608	140.31
349.073	129.31
349.537	134.31
350.001	161.31
350.465	133.31
350.93	160.31
351.394	147.31
351.858	151.31
352.322	146.31
352.786	163.31
353.25	157.31
353.715	158.31
354.179	147.31
354.643	146.31
355.107	176.31
355.571	151.31
356.035	145.31
356.498	147.31
356.962	145.31
357.426	170.31
357.89	170.31
358.354	180.31
358.818	175.31
359.281	137.31
359.745	155.31
360.209	142.31
360.673	143.31
361.136	151.31
361.6	161.31
362.064	159.31
362.527	156.31
362.991	167.31
363.454	167.31
363.918	160.31
364.381	160.31
364.845	157.31
365.308	165.31
365.772	170.31
366.235	159.31
366.698	173.31
367.162	192.31
367.625	217.31
368.088	192.31
368.552	175.31
369.015	169.31
369.478	158.31
369.941	165.31
370.404	197.31
370.867	174.31
371.331	164.31
371.794	188.31
372.257	192.31
372.72	216.31
373.183	189.31
373.646	212.31
374.109	217.31
374.572	209.31
375.035	245.31
375.497	182.31
375.96	181.31
376.423	167.31
376.886	165.31
377.349	178.31
377.811	176.31
378.274	181.31
378.737	170.31
379.199	183.31
379.662	216.31
380.125	215.31
380.587	195.31
381.05	210.31
381.512	214.31
381.975	187.31
382.437	188.31
382.9	202.31
383.362	199.31
383.825	222.31
384.287	248.31
384.75	269.31
385.212	247.31
385.674	208.31
386.136	221.31
386.599	204.31
387.061	234.31
387.523	233.31
387.985	224.31
388.447	229.31
388.91	241.31
389.372	281.31
389.834	250.31
390.296	231.31
390.758	222.31
391.22	254.31
391.682	271.31
392.144	397.31
392.606	359.31
393.068	232.31
393.529	258.31
393.991	228.31
394.453	223.31
394.915	237.31
395.377	258.31
395.838	297.31
396.3	246.31
396.762	199.31
397.224	219.31
397.685	192.31
398.147	211.31
398.608	215.31
399.07	214.31
399.531	203.31
399.993	191.31
400.454	198.31
400.916	216.31
401.377	222.31
401.839	235.31
402.3	221.31
402.762	208.31
403.223	217.31
403.684	221.31
404.145	226.31
404.607	243.31
405.068	231.31
405.529	217.31
405.99	221.31
406.451	243.31
406.913	217.31
407.374	240.31
407.835	234.31
408.296	241.31
408.757	224.31
409.218	245.31
409.679	250.31
410.14	233.31
410.601	249.31
411.062	239.31
411.522	282.31
411.983	279.31
412.444	278.31
412.905	263.31
413.366	246.31
413.826	261.31
414.287	278.31
414.748	322.31
415.208	307.31
415.669	278.31
416.13	265.31
416.59	255.31
417.051	252.31
417.511	255.31
417.972	277.31
418.432	301.31
418.893	315.31
419.353	309.31
419.814	255.31
420.274	242.31
420.734	239.31
421.195	260.31
421.655	255.31
422.115	264.31
422.576	244.31
423.036	253.31
423.496	260.31
423.956	278.31
424.416	279.31
424.876	305.31
425.336	321.31
425.797	290.31
426.257	327.31
426.717	299.31
427.177	262.31
427.637	283.31
428.097	281.31
428.556	293.31
429.016	332.31
429.476	327.31
429.936	326.31
430.396	315.31
430.856	312.31
431.315	336.31
431.775	329.31
432.235	339.31
432.694	352.31
433.154	323.31
433.614	331.31
434.073	340.31
434.533	315.31
434.993	293.31
435.452	293.31
435.912	292.31
436.371	289.31
436.83	291.31
437.29	298.31
437.749	284.31
438.209	289.31
438.668	293.31
439.127	286.31
439.587	265.31
440.046	294.31
440.505	289.31
440.964	251.31
441.424	284.31
441.883	292.31
442.342	295.31
442.801	286.31
443.26	275.31
443.719	262.31
444.178	270.31
444.637	278.31
445.096	276.31
445.555	281.31
446.014	275.31
446.473	273.31
446.932	267.31
447.391	257.31
447.849	266.31
448.308	283.31
448.767	270.31
449.226	272.31
449.685	277.31
450.143	309.31
450.602	285.31
451.061	275.31
451.519	298.31
451.978	294.31
452.436	312.31
452.895	280.31
453.353	281.31
453.812	295.31
454.27	282.31
454.729	291.31
455.187	274.31
455.646	279.31
456.104	286.31
456.562	282.31
457.021	274.31
457.479	275.31
457.937	256.31
458.395	273.31
458.854	293.31
459.312	285.31
459.77	271.31
460.228	279.31
460.686	281.31
461.144	309.31
461.602	279.31
462.06	293.31
462.518	284.31
462.976	297.31
463.434	275.31
463.892	291.31
464.35	323.31
464.808	307.31
465.266	322.31
465.724	305.31
466.181	313.31
466.639	291.31
467.097	341.31
467.555	334.31
468.012	318.31
468.47	316.31
468.928	332.31
469.385	340.31
469.843	335.31
470.3	343.31
470.758	351.31
471.215	353.31
471.673	358.31
472.13	367.31
472.588	372.31
473.045	366.31
473.503	380.31
473.96	386.31
474.417	390.31
474.875	409.31
475.332	404.31
475.789	416.31
476.246	426.31
476.704	454.31
477.161	456.31
477.618	457.31
478.075	524.31
478.532	528.31
478.989	564.31
479.446	620.31
479.903	644.31
480.36	677.31
480.817	734.31
481.274	794.31
481.731	857.31
482.188	940.31
482.645	968.31
483.102	1069.31
483.558	1143.31
484.015	1198.31
484.472	1203.31
484.929	1194.31
485.385	1129.31
485.842	1046.31
486.299	1031.31
486.755	927.31
487.212	861.31
487.668	790.31
488.125	709.31
488.582	669.31
489.038	654.31
489.494	632.31
489.951	595.31
490.407	576.31
490.864	586.31
491.32	585.31
491.776	552.31
492.233	586.31
492.689	583.31
493.145	559.31
493.602	549.31
494.058	577.31
494.514	568.31
494.97	533.31
495.426	570.31
495.882	559.31
496.338	569.31
496.794	601.31
497.251	581.31
497.707	604.31
498.163	589.31
498.618	585.31
499.074	594.31
499.53	617.31
499.986	623.31
500.442	610.31
500.898	642.31
501.354	619.31
501.809	619.31
502.265	634.31
502.721	650.31
503.177	700.31
503.632	635.31
504.088	663.31
504.543	684.31
504.999	662.31
505.455	637.31
505.91	605.31
506.366	583.31
506.821	569.31
507.277	573.31
507.732	592.31
508.187	567.31
508.643	566.31
509.098	586.31
509.553	584.31
510.009	599.31
510.464	585.31
510.919	601.31
511.375	621.31
511.83	608.31
512.285	617.31
512.74	636.31
513.195	664.31
513.65	683.31
514.105	658.31
514.56	674.31
515.015	677.31
515.47	671.31
515.925	682.31
516.38	704.31
516.835	706.31
517.29	668.31
517.745	664.31
518.2	664.31
518.655	655.31
519.109	625.31
519.564	636.31
520.019	634.31
520.474	622.31
520.928	633.31
521.383	627.31
521.838	626.31
522.292	614.31
522.747	611.31
523.201	598.31
523.656	623.31
524.11	614.31
524.565	600.31
525.019	616.31
525.474	611.31
525.928	592.31
526.382	599.31
526.837	586.31
527.291	590.31
527.745	601.31
528.2	585.31
528.654	591.31
529.108	617.31
529.562	606.31
530.016	615.31
530.47	579.31
530.925	605.31
531.379	584.31
531.833	607.31
532.287	601.31
532.741	567.31
533.195	591.31
533.649	592.31
534.103	602.31
534.556	587.31
535.01	615.31
535.464	586.31
535.918	596.31
536.372	626.31
536.826	612.31
537.279	615.31
537.733	596.31
538.187	590.31
538.64	600.31
539.094	584.31
539.548	585.31
540.001	603.31
540.455	621.31
540.908	615.31
541.362	607.31
541.815	626.31
542.269	656.31
542.722	641.31
543.175	642.31
543.629	626.31
544.082	656.31
544.536	665.31
544.989	637.31
545.442	664.31
545.895	672.31
546.349	666.31
546.802	679.31
547.255	655.31
547.708	680.31
548.161	675.31
548.614	684.31
549.067	641.31
549.52	654.31
549.973	669.31
550.426	663.31
550.879	650.31
551.332	664.31
551.785	673.31
552.238	667.31
552.691	658.31
553.144	688.31
553.596	678.31
554.049	691.31
554.502	706.31
554.955	703.31
555.407	741.31
555.86	699.31
556.313	698.31
556.765	694.31
557.218	715.31
557.67	679.31
558.123	702.31
558.576	671.31
559.028	694.31
559.48	695.31
559.933	697.31
560.385	664.31
560.838	653.31
561.29	649.31
561.742	651.31
562.195	626.31
562.647	617.31
563.099	642.31
563.551	640.31
564.004	670.31
564.456	630.31
564.908	597.31
565.36	603.31
565.812	588.31
566.264	581.31
566.716	578.31
567.168	576.31
567.62	582.31
568.072	583.31
568.524	577.31
568.976	555.31
569.428	573.31
569.88	552.31
570.332	562.31
570.784	525.31
571.235	542.31
571.687	571.31
572.139	576.31
572.59	584.31
573.042	583.31
573.494	558.31
573.945	556.31
574.397	574.31
574.849	539.31
575.3	556.31
575.752	583.31
576.203	535.31
576.655	553.31
577.106	527.31
577.557	522.31
578.009	545.31
578.46	547.31
578.912	535.31
579.363	516.31
579.814	531.31
580.265	555.31
580.717	516.31
581.168	512.31
581.619	534.31
582.07	548.31
582.521	553.31
582.972	558.31
583.423	531.31
583.875	548.31
584.326	556.31
584.777	609.31
585.227	677.31
585.678	773.31
586.129	791.31
586.58	803.31
587.031	836.31
587.482	906.31
587.933	1059.31
588.384	984.31
588.834	850.31
589.285	648.31
589.736	623.31
590.186	599.31
590.637	609.31
591.088	593.31
591.538	610.31
591.989	583.31
592.439	588.31
592.89	578.31
593.34	590.31
593.791	582.31
594.241	582.31
594.692	593.31
595.142	602.31
595.593	567.31
596.043	547.31
596.493	570.31
596.943	618.31
597.394	591.31
597.844	594.31
598.294	598.31
598.744	591.31
599.195	620.31
599.645	655.31
600.095	671.31
600.545	687.31
600.995	743.31
601.445	767.31
601.895	786.31
602.345	815.31
602.795	824.31
603.245	783.31
603.695	765.31
604.145	711.31
604.594	675.31
605.044	627.31
605.494	617.31
605.944	591.31
606.393	585.31
606.843	559.31
607.293	553.31
607.743	587.31
608.192	561.31
608.642	580.31
609.091	609.31
609.541	560.31
609.99	578.31
610.44	513.31
610.889	562.31
611.339	573.31
611.788	545.31
612.238	568.31
612.687	569.31
613.136	547.31
613.586	572.31
614.035	595.31
614.484	575.31
614.933	573.31
615.383	576.31
615.832	555.31
616.281	538.31
616.73	521.31
617.179	551.31
617.628	518.31
618.077	527.31
618.526	515.31
618.975	472.31
619.424	485.31
619.873	458.31
620.322	509.31
620.771	492.31
621.22	491.31
621.669	479.31
622.118	467.31
622.567	471.31
623.015	469.31
623.464	452.31
623.913	476.31
624.361	465.31
624.81	463.31
625.259	453.31
625.707	448.31
626.156	437.31
626.604	439.31
627.053	464.31
627.501	473.31
627.95	434.31
628.398	441.31
628.847	456.31
629.295	462.31
629.744	465.31
630.192	472.31
630.64	514.31
631.089	526.31
631.537	555.31
631.985	540.31
632.433	594.31
632.881	587.31
633.33	635.31
633.778	747.31
634.226	568.31
634.674	499.31
635.122	500.31
635.57	522.31
636.018	565.31
636.466	520.31
636.914	437.31
637.362	435.31
637.81	443.31
638.258	452.31
638.705	460.31
639.153	461.31
639.601	492.31
640.049	484.31
640.497	475.31
640.944	528.31
641.392	495.31
641.84	471.31
642.287	434.31
642.735	473.31
643.182	443.31
643.63	438.31
644.078	443.31
644.525	452.31
644.973	481.31
645.42	431.31
645.867	480.31
646.315	473.31
646.762	502.31
647.21	519.31
647.657	563.31
648.104	567.31
648.551	568.31
648.999	598.31
649.446	666.31
649.893	738.31
650.34	814.31
650.787	992.31
651.234	1240.31
651.682	1605.31
652.129	2231.31
652.576	3209.31
653.023	4436.31
653.47	5485.31
653.917	6203.31
654.363	6497.31
654.81	6843.31
655.257	7125.31
655.704	5345.31
656.151	3187.31
656.598	1998.31
657.044	1479.31
657.491	1124.31
657.938	899.31
658.385	783.31
658.831	709.31
659.278	621.31
659.724	563.31
660.171	578.31
660.618	511.31
661.064	483.31
661.511	472.31
661.957	438.31
662.404	438.31
662.85	427.31
663.296	435.31
663.743	428.31
664.189	433.31
664.635	399.31
665.082	430.31
665.528	417.31
665.974	397.31
666.42	409.31
666.867	393.31
667.313	411.31
667.759	423.31
668.205	441.31
668.651	462.31
669.097	452.31
669.543	467.31
669.989	466.31
670.435	383.31
670.881	370.31
671.327	384.31
671.773	419.31
672.219	421.31
672.665	433.31
673.11	448.31
673.556	471.31
674.002	487.31
674.448	483.31
674.893	423.31
675.339	390.31
675.785	356.31
676.23	356.31
676.676	305.31
677.122	334.31
677.567	313.31
678.013	317.31
678.458	306.31
678.904	294.31
679.349	322.31
679.794	299.31
680.24	314.31
680.685	317.31
681.131	307.31
681.576	296.31
682.021	294.31
682.466	292.31
682.912	311.31
683.357	313.31
683.802	319.31
684.247	345.31
684.692	381.31
685.137	375.31
685.583	427.31
686.028	399.31
686.473	417.31
686.918	402.31
687.363	325.31
687.807	312.31
688.252	273.31
688.697	313.31
689.142	286.31
689.587	298.31
690.032	297.31
690.477	343.31
690.921	312.31
691.366	345.31
691.811	338.31
692.255	353.31
692.7	396.31
693.145	495.31
693.589	657.31
694.034	899.31
694.478	987.31
694.923	938.31
695.367	1117.31
695.812	1017.31
696.256	483.31
696.701	346.31
697.145	293.31
697.59	287.31
698.034	303.31
698.478	293.31
698.922	297.31
699.367	271.31
699.811	298.31
700.255	332.31
700.699	347.31
701.143	372.31
701.588	387.31
702.032	376.31
702.476	405.31
702.92	404.31
703.364	446.31
703.808	642.31
704.252	882.31
704.696	1003.31
705.14	938.31
705.584	1094.31
706.027	915.31
706.471	468.31
706.915	356.31
707.359	289.31
707.803	287.31
708.246	291.31
708.69	291.31
709.134	288.31
709.577	302.31
710.021	278.31
710.465	254.31
710.908	266.31
711.352	267.31
711.795	279.31
712.239	315.31
712.682	327.31
713.126	330.31
713.569	319.31
714.012	337.31
714.456	284.31
714.899	256.31
715.342	269.31
715.786	243.31
716.229	258.31
716.672	231.31
717.115	245.31
717.558	229.31
718.002	249.31
718.445	266.31
718.888	275.31
719.331	273.31
719.774	261.31
720.217	267.31
720.66	254.31
721.103	243.31
721.546	245.31
721.989	253.31
722.432	243.31
722.874	226.31
723.317	263.31
723.76	247.31
724.203	271.31
724.645	336.31
725.088	394.31
725.531	398.31
725.974	366.31
726.416	430.31
726.859	283.31
727.301	237.31
727.744	247.31
728.187	242.31
728.629	220.31
729.071	273.31
729.514	249.31
729.956	249.31
730.399	259.31
730.841	268.31
731.283	271.31
731.726	250.31
732.168	241.31
732.61	267.31
733.053	267.31
733.495	289.31
733.937	309.31
734.379	357.31
734.821	402.31
735.263	510.31
735.705	848.31
736.148	1342.31
736.59	1542.31
737.032	1469.31
737.474	1499.31
737.916	764.31
738.357	417.31
738.799	320.31
739.241	285.31
739.683	273.31
740.125	268.31
740.567	290.31
741.008	245.31
741.45	278.31
741.892	301.31
742.334	300.31
742.775	306.31
743.217	279.31
743.658	278.31
744.1	273.31
744.542	290.31
744.983	285.31
745.425	306.31
745.866	316.31
746.307	290.31
746.749	282.31
747.19	335.31
747.632	518.31
748.073	900.31
748.514	1440.31
748.956	1709.31
749.397	2224.31
749.838	1837.31
750.279	1496.31
750.72	1123.31
751.162	539.31
751.603	322.31
752.044	257.31
752.485	211.31
752.926	215.31
753.367	222.31
753.808	208.31
754.249	206.31
754.69	210.31
755.131	193.31
755.572	197.31
756.013	197.31
