Data from 20170802-ORNL-NYSim-Air_HRD10391_10-37-52-649.txt Node
Date: Wed Aug 02 10:37:52 EDT 2017
User: Ender
Spectrometer: HR+D1039
Trigger mode: 0
Integration Time (sec): 1.100000E-3
Scans to average: 1
Electric dark correction enabled: true
Nonlinearity correction enabled: false
Boxcar width: 0
XAxis mode: Wavelengths
Number of Pixels in Spectrum: 2048
>>>>>Begin Spectral Data<<<<<
187.836	-13.81
188.309	-13.81
188.782	-13.81
189.255	-12.81
189.728	-20.81
190.201	11.19
190.674	-3.81
191.147	1.19
191.619	-13.81
192.092	1.19
192.565	-10.81
193.038	-4.81
193.511	3.19
193.984	-0.81
194.456	11.19
194.929	16.19
195.402	20.19
195.874	17.19
196.347	21.19
196.82	29.19
197.292	30.19
197.765	25.19
198.237	31.19
198.71	22.19
199.182	43.19
199.655	47.19
200.127	47.19
200.6	62.19
201.072	47.19
201.544	67.19
202.017	58.19
202.489	62.19
202.961	63.19
203.433	77.19
203.906	65.19
204.378	69.19
204.85	69.19
205.322	70.19
205.794	85.19
206.266	79.19
206.739	67.19
207.211	60.19
207.683	80.19
208.155	85.19
208.627	79.19
209.099	92.19
209.57	91.19
210.042	83.19
210.514	71.19
210.986	81.19
211.458	90.19
211.93	75.19
212.402	74.19
212.873	93.19
213.345	81.19
213.817	82.19
214.288	101.19
214.76	82.19
215.232	67.19
215.703	75.19
216.175	88.19
216.646	74.19
217.118	97.19
217.589	70.19
218.061	67.19
218.532	86.19
219.004	70.19
219.475	81.19
219.946	77.19
220.418	85.19
220.889	69.19
221.36	85.19
221.832	69.19
222.303	83.19
222.774	64.19
223.245	93.19
223.717	95.19
224.188	61.19
224.659	72.19
225.13	68.19
225.601	73.19
226.072	83.19
226.543	88.19
227.014	91.19
227.485	90.19
227.956	78.19
228.427	83.19
228.898	78.19
229.369	74.19
229.839	78.19
230.31	66.19
230.781	79.19
231.252	87.19
231.722	74.19
232.193	96.19
232.664	83.19
233.135	93.19
233.605	110.19
234.076	94.19
234.546	84.19
235.017	67.19
235.487	93.19
235.958	86.19
236.428	89.19
236.899	102.19
237.369	103.19
237.84	96.19
238.31	100.19
238.78	87.19
239.251	99.19
239.721	103.19
240.191	100.19
240.662	92.19
241.132	81.19
241.602	90.19
242.072	89.19
242.542	85.19
243.013	89.19
243.483	90.19
243.953	90.19
244.423	91.19
244.893	74.19
245.363	79.19
245.833	95.19
246.303	106.19
246.773	99.19
247.243	90.19
247.712	96.19
248.182	96.19
248.652	110.19
249.122	107.19
249.592	137.19
250.061	165.19
250.531	208.19
251.001	179.19
251.471	170.19
251.94	132.19
252.41	121.19
252.879	105.19
253.349	101.19
253.818	85.19
254.288	105.19
254.757	98.19
255.227	107.19
255.696	102.19
256.166	100.19
256.635	94.19
257.105	107.19
257.574	104.19
258.043	121.19
258.513	106.19
258.982	127.19
259.451	121.19
259.92	127.19
260.389	115.19
260.859	109.19
261.328	113.19
261.797	125.19
262.266	125.19
262.735	105.19
263.204	95.19
263.673	97.19
264.142	100.19
264.611	111.19
265.08	89.19
265.549	105.19
266.018	81.19
266.487	93.19
266.955	74.19
267.424	89.19
267.893	91.19
268.362	96.19
268.83	105.19
269.299	96.19
269.768	76.19
270.236	107.19
270.705	92.19
271.174	92.19
271.642	99.19
272.111	89.19
272.579	114.19
273.048	139.19
273.516	153.19
273.985	157.19
274.453	129.19
274.922	107.19
275.39	114.19
275.858	88.19
276.327	104.19
276.795	104.19
277.263	105.19
277.731	117.19
278.2	145.19
278.668	169.19
279.136	143.19
279.604	113.19
280.072	103.19
280.54	104.19
281.008	82.19
281.477	95.19
281.945	105.19
282.413	115.19
282.881	109.19
283.348	92.19
283.816	108.19
284.284	103.19
284.752	101.19
285.22	100.19
285.688	131.19
286.156	126.19
286.623	178.19
287.091	269.19
287.559	196.19
288.026	121.19
288.494	111.19
288.962	101.19
289.429	109.19
289.897	97.19
290.364	99.19
290.832	103.19
291.3	114.19
291.767	123.19
292.234	114.19
292.702	124.19
293.169	123.19
293.637	113.19
294.104	103.19
294.571	121.19
295.039	101.19
295.506	125.19
295.973	119.19
296.44	107.19
296.908	115.19
297.375	113.19
297.842	126.19
298.309	108.19
298.776	113.19
299.243	114.19
299.71	100.19
300.177	111.19
300.644	122.19
301.111	153.19
301.578	131.19
302.045	99.19
302.512	109.19
302.979	123.19
303.446	127.19
303.913	122.19
304.379	121.19
304.846	114.19
305.313	122.19
305.78	134.19
306.246	143.19
306.713	141.19
307.18	133.19
307.646	154.19
308.113	133.19
308.579	124.19
309.046	125.19
309.512	141.19
309.979	109.19
310.445	116.19
310.912	124.19
311.378	136.19
311.845	135.19
312.311	125.19
312.777	131.19
313.244	131.19
313.71	131.19
314.176	123.19
314.642	148.19
315.109	166.19
315.575	124.19
316.041	146.19
316.507	135.19
316.973	146.19
317.439	141.19
317.905	136.19
318.371	135.19
318.837	152.19
319.303	147.19
319.769	153.19
320.235	148.19
320.701	138.19
321.167	147.19
321.633	163.19
322.099	215.19
322.564	239.19
323.03	181.19
323.496	172.19
323.962	165.19
324.427	159.19
324.893	160.19
325.359	140.19
325.824	125.19
326.29	158.19
326.755	142.19
327.221	158.19
327.686	157.19
328.152	136.19
328.617	143.19
329.083	162.19
329.548	123.19
330.014	137.19
330.479	160.19
330.944	173.19
331.41	162.19
331.875	179.19
332.34	159.19
332.805	197.19
333.271	209.19
333.736	261.19
334.201	247.19
334.666	207.19
335.131	242.19
335.596	183.19
336.061	193.19
336.526	205.19
336.991	180.19
337.456	191.19
337.921	171.19
338.386	167.19
338.851	151.19
339.316	150.19
339.781	143.19
340.246	170.19
340.711	161.19
341.175	154.19
341.64	154.19
342.105	165.19
342.569	145.19
343.034	171.19
343.499	171.19
343.963	151.19
344.428	153.19
344.893	155.19
345.357	153.19
345.822	150.19
346.286	167.19
346.751	165.19
347.215	165.19
347.679	166.19
348.144	180.19
348.608	158.19
349.073	183.19
349.537	185.19
350.001	183.19
350.465	186.19
350.93	175.19
351.394	176.19
351.858	172.19
352.322	184.19
352.786	177.19
353.25	181.19
353.715	185.19
354.179	182.19
354.643	197.19
355.107	198.19
355.571	207.19
356.035	202.19
356.498	198.19
356.962	206.19
357.426	215.19
357.89	211.19
358.354	188.19
358.818	187.19
359.281	198.19
359.745	195.19
360.209	182.19
360.673	207.19
361.136	178.19
361.6	199.19
362.064	206.19
362.527	201.19
362.991	203.19
363.454	207.19
363.918	223.19
364.381	217.19
364.845	224.19
365.308	207.19
365.772	207.19
366.235	200.19
366.698	228.19
367.162	227.19
367.625	242.19
368.088	222.19
368.552	206.19
369.015	214.19
369.478	225.19
369.941	225.19
370.404	202.19
370.867	232.19
371.331	218.19
371.794	239.19
372.257	253.19
372.72	252.19
373.183	267.19
373.646	251.19
374.109	267.19
374.572	291.19
375.035	328.19
375.497	272.19
375.96	251.19
376.423	206.19
376.886	221.19
377.349	254.19
377.811	247.19
378.274	220.19
378.737	241.19
379.199	245.19
379.662	255.19
380.125	239.19
380.587	258.19
381.05	288.19
381.512	280.19
381.975	279.19
382.437	251.19
382.9	274.19
383.362	267.19
383.825	281.19
384.287	328.19
384.75	341.19
385.212	326.19
385.674	301.19
386.136	253.19
386.599	275.19
387.061	307.19
387.523	277.19
387.985	310.19
388.447	297.19
388.91	331.19
389.372	378.19
389.834	335.19
390.296	308.19
390.758	320.19
391.22	326.19
391.682	358.19
392.144	505.19
392.606	520.19
393.068	334.19
393.529	307.19
393.991	331.19
394.453	280.19
394.915	331.19
395.377	357.19
395.838	451.19
396.3	333.19
396.762	292.19
397.224	265.19
397.685	267.19
398.147	265.19
398.608	278.19
399.07	295.19
399.531	291.19
399.993	296.19
400.454	274.19
400.916	285.19
401.377	267.19
401.839	285.19
402.3	297.19
402.762	288.19
403.223	303.19
403.684	310.19
404.145	299.19
404.607	291.19
405.068	298.19
405.529	321.19
405.99	302.19
406.451	317.19
406.913	306.19
407.374	314.19
407.835	307.19
408.296	306.19
408.757	316.19
409.218	321.19
409.679	313.19
410.14	313.19
410.601	319.19
411.062	319.19
411.522	383.19
411.983	394.19
412.444	361.19
412.905	324.19
413.366	331.19
413.826	343.19
414.287	353.19
414.748	424.19
415.208	441.19
415.669	379.19
416.13	351.19
416.59	350.19
417.051	359.19
417.511	377.19
417.972	406.19
418.432	423.19
418.893	489.19
419.353	437.19
419.814	346.19
420.274	333.19
420.734	314.19
421.195	367.19
421.655	377.19
422.115	361.19
422.576	323.19
423.036	352.19
423.496	357.19
423.956	375.19
424.416	375.19
424.876	398.19
425.336	422.19
425.797	411.19
426.257	423.19
426.717	391.19
427.177	390.19
427.637	394.19
428.097	406.19
428.556	411.19
429.016	467.19
429.476	454.19
429.936	437.19
430.396	428.19
430.856	464.19
431.315	460.19
431.775	445.19
432.235	487.19
432.694	502.19
433.154	462.19
433.614	486.19
434.073	472.19
434.533	408.19
434.993	416.19
435.452	414.19
435.912	416.19
436.371	399.19
436.83	429.19
437.29	378.19
437.749	399.19
438.209	373.19
438.668	391.19
439.127	407.19
439.587	384.19
440.046	385.19
440.505	396.19
440.964	384.19
441.424	376.19
441.883	401.19
442.342	391.19
442.801	361.19
443.26	372.19
443.719	363.19
444.178	379.19
444.637	383.19
445.096	377.19
445.555	372.19
446.014	378.19
446.473	357.19
446.932	369.19
447.391	381.19
447.849	370.19
448.308	377.19
448.767	400.19
449.226	381.19
449.685	380.19
450.143	396.19
450.602	438.19
451.061	396.19
451.519	378.19
451.978	394.19
452.436	407.19
452.895	403.19
453.353	397.19
453.812	377.19
454.27	413.19
454.729	400.19
455.187	381.19
455.646	365.19
456.104	410.19
456.562	382.19
457.021	402.19
457.479	379.19
457.937	376.19
458.395	391.19
458.854	387.19
459.312	390.19
459.77	400.19
460.228	379.19
460.686	378.19
461.144	386.19
461.602	393.19
462.06	403.19
462.518	402.19
462.976	386.19
463.434	385.19
463.892	412.19
464.35	391.19
464.808	422.19
465.266	435.19
465.724	444.19
466.181	448.19
466.639	436.19
467.097	430.19
467.555	452.19
468.012	459.19
468.47	490.19
468.928	478.19
469.385	480.19
469.843	492.19
470.3	483.19
470.758	506.19
471.215	514.19
471.673	529.19
472.13	534.19
472.588	544.19
473.045	536.19
473.503	533.19
473.96	539.19
474.417	589.19
474.875	581.19
475.332	600.19
475.789	624.19
476.246	626.19
476.704	658.19
477.161	684.19
477.618	702.19
478.075	705.19
478.532	787.19
478.989	826.19
479.446	895.19
479.903	963.19
480.36	1044.19
480.817	1116.19
481.274	1159.19
481.731	1253.19
482.188	1381.19
482.645	1515.19
483.102	1614.19
483.558	1677.19
484.015	1789.19
484.472	1765.19
484.929	1753.19
485.385	1674.19
485.842	1595.19
486.299	1527.19
486.755	1412.19
487.212	1291.19
487.668	1173.19
488.125	1059.19
488.582	977.19
489.038	937.19
489.494	909.19
489.951	897.19
490.407	854.19
490.864	845.19
491.32	833.19
491.776	798.19
492.233	834.19
492.689	827.19
493.145	785.19
493.602	785.19
494.058	804.19
494.514	839.19
494.97	807.19
495.426	838.19
495.882	825.19
496.338	843.19
496.794	868.19
497.251	858.19
497.707	864.19
498.163	838.19
498.618	843.19
499.074	845.19
499.53	869.19
499.986	862.19
500.442	879.19
500.898	894.19
501.354	889.19
501.809	925.19
502.265	917.19
502.721	899.19
503.177	963.19
503.632	942.19
504.088	928.19
504.543	992.19
504.999	971.19
505.455	866.19
505.91	835.19
506.366	805.19
506.821	843.19
507.277	833.19
507.732	830.19
508.187	859.19
508.643	810.19
509.098	837.19
509.553	832.19
510.009	866.19
510.464	855.19
510.919	906.19
511.375	898.19
511.83	919.19
512.285	917.19
512.74	917.19
513.195	937.19
513.65	953.19
514.105	937.19
514.56	964.19
515.015	1005.19
515.47	995.19
515.925	1008.19
516.38	997.19
516.835	986.19
517.29	980.19
517.745	993.19
518.2	980.19
518.655	979.19
519.109	987.19
519.564	933.19
520.019	935.19
520.474	934.19
520.928	943.19
521.383	896.19
521.838	898.19
522.292	888.19
522.747	893.19
523.201	889.19
523.656	882.19
524.11	879.19
524.565	890.19
525.019	894.19
525.474	896.19
525.928	875.19
526.382	873.19
526.837	869.19
527.291	869.19
527.745	867.19
528.2	867.19
528.654	881.19
529.108	849.19
529.562	880.19
530.016	878.19
530.47	876.19
530.925	873.19
531.379	890.19
531.833	900.19
532.287	865.19
532.741	883.19
533.195	893.19
533.649	872.19
534.103	866.19
534.556	865.19
535.01	862.19
535.464	859.19
535.918	883.19
536.372	907.19
536.826	872.19
537.279	864.19
537.733	875.19
538.187	865.19
538.64	874.19
539.094	877.19
539.548	899.19
540.001	874.19
540.455	888.19
540.908	895.19
541.362	916.19
541.815	911.19
542.269	953.19
542.722	915.19
543.175	919.19
543.629	925.19
544.082	955.19
544.536	974.19
544.989	946.19
545.442	938.19
545.895	960.19
546.349	964.19
546.802	982.19
547.255	941.19
547.708	995.19
548.161	1000.19
548.614	958.19
549.067	988.19
549.52	1019.19
549.973	985.19
550.426	947.19
550.879	946.19
551.332	944.19
551.785	962.19
552.238	968.19
552.691	978.19
553.144	986.19
553.596	986.19
554.049	1003.19
554.502	1058.19
554.955	1047.19
555.407	1065.19
555.86	1050.19
556.313	1070.19
556.765	1023.19
557.218	1022.19
557.67	1043.19
558.123	1048.19
558.576	1036.19
559.028	1027.19
559.48	1000.19
559.933	990.19
560.385	997.19
560.838	938.19
561.29	948.19
561.742	912.19
562.195	899.19
562.647	927.19
563.099	907.19
563.551	893.19
564.004	890.19
564.456	925.19
564.908	905.19
565.36	889.19
565.812	865.19
566.264	856.19
566.716	855.19
567.168	849.19
567.62	826.19
568.072	781.19
568.524	818.19
568.976	810.19
569.428	821.19
569.88	820.19
570.332	831.19
570.784	839.19
571.235	799.19
571.687	814.19
572.139	813.19
572.59	809.19
573.042	815.19
573.494	839.19
573.945	840.19
574.397	812.19
574.849	812.19
575.3	828.19
575.752	803.19
576.203	773.19
576.655	799.19
577.106	773.19
577.557	767.19
578.009	797.19
578.46	785.19
578.912	745.19
579.363	774.19
579.814	761.19
580.265	805.19
580.717	763.19
581.168	759.19
581.619	796.19
582.07	797.19
582.521	743.19
582.972	803.19
583.423	825.19
583.875	846.19
584.326	817.19
584.777	902.19
585.227	997.19
585.678	1059.19
586.129	1108.19
586.58	1157.19
587.031	1219.19
587.482	1223.19
587.933	1485.19
588.384	1425.19
588.834	1147.19
589.285	937.19
589.736	893.19
590.186	893.19
590.637	871.19
591.088	834.19
591.538	847.19
591.989	843.19
592.439	829.19
592.89	826.19
593.34	838.19
593.791	814.19
594.241	812.19
594.692	844.19
595.142	819.19
595.593	799.19
596.043	807.19
596.493	834.19
596.943	803.19
597.394	859.19
597.844	869.19
598.294	861.19
598.744	841.19
599.195	905.19
599.645	935.19
600.095	989.19
600.545	1028.19
600.995	1057.19
601.445	1088.19
601.895	1146.19
602.345	1185.19
602.795	1169.19
603.245	1131.19
603.695	1063.19
604.145	1033.19
604.594	991.19
605.044	943.19
605.494	877.19
605.944	850.19
606.393	836.19
606.843	839.19
607.293	803.19
607.743	811.19
608.192	808.19
608.642	800.19
609.091	815.19
609.541	828.19
609.99	823.19
610.44	809.19
610.889	804.19
611.339	801.19
611.788	775.19
612.238	813.19
612.687	801.19
613.136	784.19
613.586	813.19
614.035	813.19
614.484	802.19
614.933	831.19
615.383	823.19
615.832	779.19
616.281	771.19
616.73	753.19
617.179	745.19
617.628	731.19
618.077	725.19
618.526	683.19
618.975	685.19
619.424	718.19
619.873	715.19
620.322	675.19
620.771	700.19
621.22	695.19
621.669	673.19
622.118	707.19
622.567	661.19
623.015	658.19
623.464	663.19
623.913	648.19
624.361	647.19
624.81	645.19
625.259	639.19
625.707	613.19
626.156	668.19
626.604	643.19
627.053	655.19
627.501	649.19
627.95	641.19
628.398	638.19
628.847	653.19
629.295	634.19
629.744	643.19
630.192	639.19
630.64	641.19
631.089	728.19
631.537	745.19
631.985	717.19
632.433	778.19
632.881	726.19
633.33	860.19
633.778	976.19
634.226	751.19
634.674	696.19
635.122	685.19
635.57	705.19
636.018	770.19
636.466	701.19
636.914	632.19
637.362	626.19
637.81	633.19
638.258	676.19
638.705	643.19
639.153	665.19
639.601	683.19
640.049	691.19
640.497	693.19
640.944	737.19
641.392	703.19
641.84	653.19
642.287	633.19
642.735	641.19
643.182	632.19
643.63	635.19
644.078	629.19
644.525	628.19
644.973	621.19
645.42	670.19
645.867	668.19
646.315	689.19
646.762	707.19
647.21	741.19
647.657	773.19
648.104	783.19
648.551	813.19
648.999	875.19
649.446	908.19
649.893	1047.19
650.34	1187.19
650.787	1383.19
651.234	1789.19
651.682	2402.19
652.129	3301.19
652.576	4855.19
653.023	6613.19
653.47	8223.19
653.917	9193.19
654.363	9826.19
654.81	10300.19
655.257	10874.19
655.704	8129.19
656.151	4899.19
656.598	3022.19
657.044	2202.19
657.491	1678.19
657.938	1376.19
658.385	1196.19
658.831	1011.19
659.278	889.19
659.724	867.19
660.171	782.19
660.618	727.19
661.064	695.19
661.511	657.19
661.957	612.19
662.404	607.19
662.85	613.19
663.296	637.19
663.743	585.19
664.189	589.19
664.635	567.19
665.082	590.19
665.528	592.19
665.974	578.19
666.42	534.19
666.867	546.19
667.313	557.19
667.759	583.19
668.205	592.19
668.651	600.19
669.097	587.19
669.543	616.19
669.989	637.19
670.435	543.19
670.881	529.19
671.327	537.19
671.773	548.19
672.219	586.19
672.665	606.19
673.11	636.19
673.556	633.19
674.002	633.19
674.448	666.19
674.893	623.19
675.339	549.19
675.785	487.19
676.23	459.19
676.676	457.19
677.122	442.19
677.567	449.19
678.013	423.19
678.458	434.19
678.904	425.19
679.349	422.19
679.794	413.19
680.24	427.19
680.685	418.19
681.131	408.19
681.576	421.19
682.021	413.19
682.466	415.19
682.912	416.19
683.357	419.19
683.802	458.19
684.247	454.19
684.692	529.19
685.137	557.19
685.583	554.19
686.028	547.19
686.473	585.19
686.918	521.19
687.363	460.19
687.807	437.19
688.252	390.19
688.697	414.19
689.142	396.19
689.587	395.19
690.032	415.19
690.477	419.19
690.921	449.19
691.366	420.19
691.811	439.19
692.255	479.19
692.7	538.19
693.145	675.19
693.589	982.19
694.034	1278.19
694.478	1403.19
694.923	1336.19
695.367	1599.19
695.812	1490.19
696.256	656.19
696.701	451.19
697.145	399.19
697.59	384.19
698.034	387.19
698.478	391.19
698.922	392.19
699.367	402.19
699.811	421.19
700.255	425.19
700.699	449.19
701.143	485.19
701.588	498.19
702.032	537.19
702.476	558.19
702.92	559.19
703.364	654.19
703.808	918.19
704.252	1216.19
704.696	1365.19
705.14	1285.19
705.584	1605.19
706.027	1301.19
706.471	671.19
706.915	488.19
707.359	427.19
707.803	392.19
708.246	374.19
708.69	414.19
709.134	368.19
709.577	370.19
710.021	363.19
710.465	363.19
710.908	372.19
711.352	375.19
711.795	386.19
712.239	434.19
712.682	453.19
713.126	463.19
713.569	472.19
714.012	445.19
714.456	389.19
714.899	375.19
715.342	353.19
715.786	344.19
716.229	331.19
716.672	308.19
717.115	341.19
717.558	300.19
718.002	332.19
718.445	340.19
718.888	332.19
719.331	364.19
719.774	360.19
720.217	329.19
720.66	343.19
721.103	325.19
721.546	303.19
721.989	349.19
722.432	317.19
722.874	289.19
723.317	309.19
723.76	319.19
724.203	357.19
724.645	447.19
725.088	516.19
725.531	551.19
725.974	567.19
726.416	546.19
726.859	402.19
727.301	330.19
727.744	311.19
728.187	313.19
728.629	319.19
729.071	309.19
729.514	305.19
729.956	337.19
730.399	346.19
730.841	351.19
731.283	332.19
731.726	326.19
732.168	328.19
732.61	337.19
733.053	355.19
733.495	392.19
733.937	415.19
734.379	451.19
734.821	557.19
735.263	720.19
735.705	1175.19
736.148	1929.19
736.59	2207.19
737.032	2083.19
737.474	2216.19
737.916	1131.19
738.357	581.19
738.799	413.19
739.241	387.19
739.683	359.19
740.125	391.19
740.567	384.19
741.008	373.19
741.45	386.19
741.892	387.19
742.334	411.19
742.775	405.19
743.217	366.19
743.658	357.19
744.1	335.19
744.542	377.19
744.983	370.19
745.425	397.19
745.866	424.19
746.307	388.19
746.749	377.19
747.19	451.19
747.632	729.19
748.073	1309.19
748.514	1982.19
748.956	2434.19
749.397	3318.19
749.838	2728.19
750.279	2215.19
750.72	1663.19
751.162	804.19
751.603	441.19
752.044	332.19
752.485	293.19
752.926	295.19
