Data from 20170802-ORNL-NYSim-Air_HRD10391_10-38-32-665.txt Node
Date: Wed Aug 02 10:38:32 EDT 2017
User: Ender
Spectrometer: HR+D1039
Trigger mode: 0
Integration Time (sec): 1.100000E-3
Scans to average: 1
Electric dark correction enabled: true
Nonlinearity correction enabled: false
Boxcar width: 0
XAxis mode: Wavelengths
Number of Pixels in Spectrum: 2048
>>>>>Begin Spectral Data<<<<<
187.836	8.94
188.309	8.94
188.782	8.94
189.255	-6.06
189.728	4.94
190.201	-8.06
190.674	-7.06
191.147	-19.06
191.619	-16.06
192.092	-4.06
192.565	-11.06
193.038	-10.06
193.511	12.94
193.984	4.94
194.456	13.94
194.929	21.94
195.402	-0.06
195.874	13.94
196.347	27.94
196.82	28.94
197.292	23.94
197.765	31.94
198.237	50.94
198.71	47.94
199.182	49.94
199.655	50.94
200.127	41.94
200.6	53.94
201.072	65.94
201.544	66.94
202.017	51.94
202.489	56.94
202.961	71.94
203.433	78.94
203.906	61.94
204.378	60.94
204.85	65.94
205.322	76.94
205.794	77.94
206.266	69.94
206.739	99.94
207.211	83.94
207.683	79.94
208.155	80.94
208.627	89.94
209.099	69.94
209.57	81.94
210.042	79.94
210.514	74.94
210.986	94.94
211.458	81.94
211.93	87.94
212.402	95.94
212.873	66.94
213.345	92.94
213.817	92.94
214.288	84.94
214.76	71.94
215.232	69.94
215.703	87.94
216.175	82.94
216.646	67.94
217.118	85.94
217.589	74.94
218.061	84.94
218.532	87.94
219.004	71.94
219.475	91.94
219.946	67.94
220.418	72.94
220.889	88.94
221.36	75.94
221.832	71.94
222.303	69.94
222.774	75.94
223.245	76.94
223.717	63.94
224.188	79.94
224.659	71.94
225.13	79.94
225.601	77.94
226.072	74.94
226.543	88.94
227.014	79.94
227.485	68.94
227.956	96.94
228.427	90.94
228.898	71.94
229.369	62.94
229.839	79.94
230.31	80.94
230.781	82.94
231.252	68.94
231.722	88.94
232.193	84.94
232.664	75.94
233.135	97.94
233.605	104.94
234.076	84.94
234.546	84.94
235.017	90.94
235.487	84.94
235.958	83.94
236.428	76.94
236.899	85.94
237.369	90.94
237.84	94.94
238.31	97.94
238.78	82.94
239.251	99.94
239.721	79.94
240.191	83.94
240.662	83.94
241.132	74.94
241.602	98.94
242.072	76.94
242.542	107.94
243.013	93.94
243.483	95.94
243.953	81.94
244.423	90.94
244.893	79.94
245.363	87.94
245.833	81.94
246.303	77.94
246.773	90.94
247.243	77.94
247.712	90.94
248.182	107.94
248.652	100.94
249.122	113.94
249.592	109.94
250.061	130.94
250.531	145.94
251.001	133.94
251.471	127.94
251.94	114.94
252.41	116.94
252.879	80.94
253.349	89.94
253.818	77.94
254.288	85.94
254.757	90.94
255.227	93.94
255.696	96.94
256.166	93.94
256.635	105.94
257.105	98.94
257.574	93.94
258.043	101.94
258.513	91.94
258.982	105.94
259.451	101.94
259.92	94.94
260.389	93.94
260.859	90.94
261.328	103.94
261.797	109.94
262.266	104.94
262.735	71.94
263.204	84.94
263.673	74.94
264.142	77.94
264.611	89.94
265.08	91.94
265.549	80.94
266.018	74.94
266.487	85.94
266.955	83.94
267.424	99.94
267.893	75.94
268.362	90.94
268.83	80.94
269.299	93.94
269.768	106.94
270.236	83.94
270.705	85.94
271.174	82.94
271.642	90.94
272.111	88.94
272.579	107.94
273.048	147.94
273.516	124.94
273.985	132.94
274.453	120.94
274.922	84.94
275.39	80.94
275.858	94.94
276.327	83.94
276.795	100.94
277.263	92.94
277.731	103.94
278.2	105.94
278.668	126.94
279.136	129.94
279.604	103.94
280.072	85.94
280.54	106.94
281.008	81.94
281.477	66.94
281.945	92.94
282.413	117.94
282.881	89.94
283.348	97.94
283.816	103.94
284.284	89.94
284.752	90.94
285.22	89.94
285.688	104.94
286.156	103.94
286.623	171.94
287.091	221.94
287.559	158.94
288.026	101.94
288.494	91.94
288.962	92.94
289.429	80.94
289.897	103.94
290.364	108.94
290.832	93.94
291.3	107.94
291.767	107.94
292.234	94.94
292.702	103.94
293.169	103.94
293.637	93.94
294.104	104.94
294.571	93.94
295.039	86.94
295.506	106.94
295.973	100.94
296.44	84.94
296.908	74.94
297.375	94.94
297.842	114.94
298.309	82.94
298.776	101.94
299.243	94.94
299.71	103.94
300.177	88.94
300.644	105.94
301.111	108.94
301.578	100.94
302.045	97.94
302.512	92.94
302.979	101.94
303.446	96.94
303.913	106.94
304.379	101.94
304.846	106.94
305.313	100.94
305.78	125.94
306.246	129.94
306.713	121.94
307.18	118.94
307.646	122.94
308.113	119.94
308.579	117.94
309.046	114.94
309.512	111.94
309.979	112.94
310.445	109.94
310.912	116.94
311.378	111.94
311.845	103.94
312.311	114.94
312.777	105.94
313.244	109.94
313.71	114.94
314.176	107.94
314.642	101.94
315.109	119.94
315.575	113.94
316.041	128.94
316.507	117.94
316.973	114.94
317.439	117.94
317.905	120.94
318.371	117.94
318.837	125.94
319.303	127.94
319.769	116.94
320.235	111.94
320.701	137.94
321.167	144.94
321.633	158.94
322.099	168.94
322.564	196.94
323.03	168.94
323.496	127.94
323.962	129.94
324.427	123.94
324.893	135.94
325.359	116.94
325.824	119.94
326.29	120.94
326.755	117.94
327.221	111.94
327.686	115.94
328.152	126.94
328.617	110.94
329.083	117.94
329.548	133.94
330.014	129.94
330.479	125.94
330.944	131.94
331.41	146.94
331.875	138.94
332.34	151.94
332.805	142.94
333.271	163.94
333.736	212.94
334.201	173.94
334.666	169.94
335.131	161.94
335.596	188.94
336.061	156.94
336.526	187.94
336.991	135.94
337.456	157.94
337.921	145.94
338.386	137.94
338.851	146.94
339.316	132.94
339.781	115.94
340.246	120.94
340.711	133.94
341.175	131.94
341.64	140.94
342.105	136.94
342.569	127.94
343.034	137.94
343.499	144.94
343.963	139.94
344.428	136.94
344.893	122.94
345.357	144.94
345.822	117.94
346.286	130.94
346.751	147.94
347.215	127.94
347.679	121.94
348.144	153.94
348.608	131.94
349.073	154.94
349.537	145.94
350.001	135.94
350.465	141.94
350.93	142.94
351.394	119.94
351.858	137.94
352.322	133.94
352.786	145.94
353.25	147.94
353.715	138.94
354.179	139.94
354.643	157.94
355.107	142.94
355.571	144.94
356.035	175.94
356.498	166.94
356.962	165.94
357.426	175.94
357.89	158.94
358.354	159.94
358.818	129.94
359.281	148.94
359.745	142.94
360.209	157.94
360.673	151.94
361.136	143.94
361.6	145.94
362.064	157.94
362.527	134.94
362.991	165.94
363.454	162.94
363.918	165.94
364.381	144.94
364.845	163.94
365.308	161.94
365.772	151.94
366.235	140.94
366.698	182.94
367.162	174.94
367.625	198.94
368.088	184.94
368.552	176.94
369.015	175.94
369.478	154.94
369.941	156.94
370.404	170.94
370.867	179.94
371.331	171.94
371.794	165.94
372.257	203.94
372.72	198.94
373.183	201.94
373.646	170.94
374.109	210.94
374.572	204.94
375.035	240.94
375.497	195.94
375.96	177.94
376.423	180.94
376.886	182.94
377.349	175.94
377.811	169.94
378.274	201.94
378.737	180.94
379.199	169.94
379.662	191.94
380.125	179.94
380.587	205.94
381.05	187.94
381.512	210.94
381.975	220.94
382.437	189.94
382.9	193.94
383.362	187.94
383.825	208.94
384.287	245.94
384.75	289.94
385.212	240.94
385.674	231.94
386.136	188.94
386.599	208.94
387.061	214.94
387.523	198.94
387.985	219.94
388.447	218.94
388.91	223.94
389.372	263.94
389.834	258.94
390.296	217.94
390.758	216.94
391.22	250.94
391.682	256.94
392.144	399.94
392.606	346.94
393.068	255.94
393.529	249.94
393.991	241.94
394.453	219.94
394.915	220.94
395.377	240.94
395.838	315.94
396.3	241.94
396.762	204.94
397.224	190.94
397.685	193.94
398.147	197.94
398.608	233.94
399.07	190.94
399.531	203.94
399.993	193.94
400.454	199.94
400.916	200.94
401.377	218.94
401.839	232.94
402.3	218.94
402.762	238.94
403.223	221.94
403.684	244.94
404.145	200.94
404.607	219.94
405.068	215.94
405.529	215.94
405.99	221.94
406.451	225.94
406.913	214.94
407.374	215.94
407.835	202.94
408.296	229.94
408.757	224.94
409.218	223.94
409.679	219.94
410.14	222.94
410.601	229.94
411.062	241.94
411.522	249.94
411.983	273.94
412.444	263.94
412.905	248.94
413.366	231.94
413.826	253.94
414.287	269.94
414.748	299.94
415.208	299.94
415.669	271.94
416.13	261.94
416.59	238.94
417.051	246.94
417.511	251.94
417.972	265.94
418.432	275.94
418.893	296.94
419.353	300.94
419.814	238.94
420.274	249.94
420.734	229.94
421.195	256.94
421.655	259.94
422.115	235.94
422.576	239.94
423.036	238.94
423.496	253.94
423.956	256.94
424.416	274.94
424.876	297.94
425.336	300.94
425.797	291.94
426.257	300.94
426.717	269.94
427.177	258.94
427.637	266.94
428.097	295.94
428.556	307.94
429.016	306.94
429.476	337.94
429.936	325.94
430.396	325.94
430.856	296.94
431.315	295.94
431.775	325.94
432.235	367.94
432.694	365.94
433.154	342.94
433.614	326.94
434.073	324.94
434.533	289.94
434.993	271.94
435.452	279.94
435.912	273.94
436.371	289.94
436.83	276.94
437.29	285.94
437.749	284.94
438.209	277.94
438.668	267.94
439.127	281.94
439.587	291.94
440.046	269.94
440.505	263.94
440.964	286.94
441.424	281.94
441.883	301.94
442.342	255.94
442.801	257.94
443.26	257.94
443.719	265.94
444.178	249.94
444.637	275.94
445.096	256.94
445.555	264.94
446.014	248.94
446.473	257.94
446.932	267.94
447.391	295.94
447.849	261.94
448.308	258.94
448.767	267.94
449.226	262.94
449.685	271.94
450.143	289.94
450.602	276.94
451.061	261.94
451.519	257.94
451.978	290.94
452.436	295.94
452.895	277.94
453.353	289.94
453.812	264.94
454.27	287.94
454.729	267.94
455.187	275.94
455.646	271.94
456.104	279.94
456.562	265.94
457.021	255.94
457.479	254.94
457.937	243.94
458.395	251.94
458.854	275.94
459.312	254.94
459.77	258.94
460.228	274.94
460.686	280.94
461.144	267.94
461.602	306.94
462.06	274.94
462.518	280.94
462.976	283.94
463.434	277.94
463.892	299.94
464.35	270.94
464.808	299.94
465.266	281.94
465.724	310.94
466.181	291.94
466.639	290.94
467.097	287.94
467.555	292.94
468.012	310.94
468.47	321.94
468.928	310.94
469.385	311.94
469.843	317.94
470.3	313.94
470.758	324.94
471.215	348.94
471.673	359.94
472.13	365.94
472.588	366.94
473.045	362.94
473.503	377.94
473.96	377.94
474.417	363.94
474.875	391.94
475.332	392.94
475.789	403.94
476.246	415.94
476.704	426.94
477.161	436.94
477.618	447.94
478.075	484.94
478.532	529.94
478.989	571.94
479.446	615.94
479.903	679.94
480.36	690.94
480.817	733.94
481.274	806.94
481.731	893.94
482.188	960.94
482.645	1009.94
483.102	1055.94
483.558	1139.94
484.015	1215.94
484.472	1215.94
484.929	1123.94
485.385	1118.94
485.842	1083.94
486.299	1050.94
486.755	953.94
487.212	858.94
487.668	767.94
488.125	726.94
488.582	644.94
489.038	634.94
489.494	613.94
489.951	582.94
490.407	577.94
490.864	570.94
491.32	560.94
491.776	520.94
492.233	538.94
492.689	552.94
493.145	535.94
493.602	505.94
494.058	533.94
494.514	545.94
494.97	568.94
495.426	557.94
495.882	559.94
496.338	539.94
496.794	553.94
497.251	594.94
497.707	594.94
498.163	556.94
498.618	568.94
499.074	577.94
499.53	595.94
499.986	626.94
500.442	603.94
500.898	575.94
501.354	607.94
501.809	586.94
502.265	600.94
502.721	643.94
503.177	674.94
503.632	611.94
504.088	615.94
504.543	689.94
504.999	642.94
505.455	553.94
505.91	567.94
506.366	533.94
506.821	563.94
507.277	536.94
507.732	569.94
508.187	542.94
508.643	551.94
509.098	594.94
509.553	557.94
510.009	568.94
510.464	575.94
510.919	602.94
511.375	569.94
511.83	589.94
512.285	588.94
512.74	577.94
513.195	633.94
513.65	617.94
514.105	640.94
514.56	644.94
515.015	654.94
515.47	646.94
515.925	674.94
516.38	666.94
516.835	667.94
517.29	665.94
517.745	647.94
518.2	660.94
518.655	661.94
519.109	611.94
519.564	624.94
520.019	616.94
520.474	614.94
520.928	610.94
521.383	618.94
521.838	592.94
522.292	601.94
522.747	580.94
523.201	590.94
523.656	568.94
524.11	577.94
524.565	573.94
525.019	587.94
525.474	593.94
525.928	565.94
526.382	601.94
526.837	584.94
527.291	580.94
527.745	582.94
528.2	572.94
528.654	566.94
529.108	559.94
529.562	585.94
530.016	559.94
530.47	578.94
530.925	576.94
531.379	573.94
531.833	580.94
532.287	566.94
532.741	549.94
533.195	583.94
533.649	574.94
534.103	564.94
534.556	541.94
535.01	571.94
535.464	577.94
535.918	583.94
536.372	615.94
536.826	571.94
537.279	557.94
537.733	589.94
538.187	558.94
538.64	567.94
539.094	575.94
539.548	581.94
540.001	572.94
540.455	578.94
540.908	575.94
541.362	588.94
541.815	603.94
542.269	654.94
542.722	618.94
543.175	597.94
543.629	586.94
544.082	634.94
544.536	647.94
544.989	635.94
545.442	653.94
545.895	630.94
546.349	644.94
546.802	608.94
547.255	645.94
547.708	635.94
548.161	637.94
548.614	675.94
549.067	668.94
549.52	633.94
549.973	614.94
550.426	652.94
550.879	643.94
551.332	629.94
551.785	635.94
552.238	657.94
552.691	633.94
553.144	651.94
553.596	654.94
554.049	655.94
554.502	672.94
554.955	672.94
555.407	694.94
555.86	706.94
556.313	677.94
556.765	663.94
557.218	670.94
557.67	709.94
558.123	671.94
558.576	669.94
559.028	661.94
559.48	644.94
559.933	659.94
560.385	649.94
560.838	621.94
561.29	602.94
561.742	601.94
562.195	636.94
562.647	616.94
563.099	591.94
563.551	599.94
564.004	608.94
564.456	573.94
564.908	609.94
565.36	568.94
565.812	574.94
566.264	560.94
566.716	581.94
567.168	561.94
567.62	555.94
568.072	556.94
568.524	539.94
568.976	520.94
569.428	519.94
569.88	537.94
570.332	543.94
570.784	521.94
571.235	536.94
571.687	556.94
572.139	547.94
572.59	559.94
573.042	542.94
573.494	551.94
573.945	531.94
574.397	547.94
574.849	533.94
575.3	521.94
575.752	529.94
576.203	540.94
576.655	551.94
577.106	525.94
577.557	517.94
578.009	514.94
578.46	520.94
578.912	549.94
579.363	557.94
579.814	519.94
580.265	505.94
580.717	528.94
581.168	489.94
581.619	506.94
582.07	524.94
582.521	534.94
582.972	538.94
583.423	527.94
583.875	535.94
584.326	565.94
584.777	623.94
585.227	675.94
585.678	757.94
586.129	749.94
586.58	773.94
587.031	792.94
587.482	842.94
587.933	999.94
588.384	954.94
588.834	801.94
589.285	608.94
589.736	583.94
590.186	571.94
590.637	599.94
591.088	572.94
591.538	552.94
591.989	531.94
592.439	558.94
592.89	572.94
593.34	562.94
593.791	551.94
594.241	535.94
594.692	572.94
595.142	558.94
595.593	544.94
596.043	537.94
596.493	582.94
596.943	572.94
597.394	561.94
597.844	557.94
598.294	570.94
598.744	564.94
599.195	616.94
599.645	613.94
600.095	667.94
600.545	668.94
600.995	708.94
601.445	715.94
601.895	770.94
602.345	792.94
602.795	792.94
603.245	749.94
603.695	720.94
604.145	695.94
604.594	659.94
605.044	632.94
605.494	578.94
605.944	572.94
606.393	569.94
606.843	542.94
607.293	546.94
607.743	547.94
608.192	549.94
608.642	550.94
609.091	539.94
609.541	563.94
609.99	544.94
610.44	548.94
610.889	534.94
611.339	518.94
611.788	531.94
612.238	544.94
612.687	556.94
613.136	553.94
613.586	569.94
614.035	556.94
614.484	578.94
614.933	581.94
615.383	573.94
615.832	553.94
616.281	559.94
616.73	555.94
617.179	499.94
617.628	523.94
618.077	506.94
618.526	492.94
618.975	477.94
619.424	480.94
619.873	502.94
620.322	473.94
620.771	475.94
621.22	461.94
621.669	479.94
622.118	457.94
622.567	465.94
623.015	444.94
623.464	436.94
623.913	432.94
624.361	439.94
624.81	442.94
625.259	426.94
625.707	430.94
626.156	452.94
626.604	436.94
627.053	447.94
627.501	448.94
627.95	433.94
628.398	437.94
628.847	436.94
629.295	422.94
629.744	407.94
630.192	435.94
630.64	463.94
631.089	508.94
631.537	546.94
631.985	555.94
632.433	555.94
632.881	585.94
633.33	631.94
633.778	751.94
634.226	551.94
634.674	493.94
635.122	505.94
635.57	502.94
636.018	565.94
636.466	504.94
636.914	437.94
637.362	438.94
637.81	421.94
638.258	437.94
638.705	443.94
639.153	455.94
639.601	464.94
640.049	469.94
640.497	478.94
640.944	500.94
641.392	492.94
641.84	466.94
642.287	432.94
642.735	428.94
643.182	424.94
643.63	425.94
644.078	449.94
644.525	432.94
644.973	443.94
645.42	464.94
645.867	454.94
646.315	447.94
646.762	481.94
647.21	479.94
647.657	501.94
648.104	541.94
648.551	534.94
648.999	583.94
649.446	638.94
649.893	701.94
650.34	803.94
650.787	962.94
651.234	1227.94
651.682	1621.94
652.129	2264.94
652.576	3248.94
653.023	4637.94
653.47	5722.94
653.917	6402.94
654.363	6787.94
654.81	7158.94
655.257	7482.94
655.704	5578.94
656.151	3324.94
656.598	2141.94
657.044	1483.94
657.491	1134.94
657.938	924.94
658.385	773.94
658.831	665.94
659.278	611.94
659.724	573.94
660.171	524.94
660.618	507.94
661.064	465.94
661.511	460.94
661.957	450.94
662.404	461.94
662.85	456.94
663.296	429.94
663.743	407.94
664.189	406.94
664.635	386.94
665.082	405.94
665.528	392.94
665.974	370.94
666.42	386.94
666.867	362.94
667.313	391.94
667.759	424.94
668.205	468.94
668.651	440.94
669.097	444.94
669.543	445.94
669.989	453.94
670.435	365.94
670.881	357.94
671.327	364.94
671.773	379.94
672.219	413.94
672.665	433.94
673.11	458.94
673.556	456.94
674.002	479.94
674.448	479.94
674.893	404.94
675.339	375.94
675.785	357.94
676.23	345.94
676.676	331.94
677.122	327.94
677.567	317.94
678.013	311.94
678.458	298.94
678.904	296.94
679.349	307.94
679.794	309.94
680.24	294.94
680.685	296.94
681.131	295.94
681.576	315.94
682.021	297.94
682.466	306.94
682.912	307.94
683.357	313.94
683.802	298.94
684.247	338.94
684.692	336.94
685.137	390.94
685.583	385.94
686.028	399.94
686.473	384.94
686.918	346.94
687.363	315.94
687.807	300.94
688.252	316.94
688.697	286.94
689.142	287.94
689.587	282.94
690.032	271.94
690.477	282.94
690.921	311.94
691.366	337.94
691.811	319.94
692.255	320.94
692.7	389.94
693.145	471.94
693.589	707.94
694.034	874.94
694.478	957.94
694.923	897.94
695.367	1110.94
695.812	984.94
696.256	432.94
696.701	319.94
697.145	279.94
697.59	263.94
698.034	277.94
698.478	311.94
698.922	301.94
699.367	279.94
699.811	296.94
700.255	313.94
700.699	331.94
701.143	357.94
701.588	357.94
702.032	384.94
702.476	387.94
702.92	390.94
703.364	460.94
703.808	633.94
704.252	864.94
704.696	937.94
705.14	881.94
705.584	1059.94
706.027	849.94
706.471	469.94
706.915	351.94
707.359	319.94
707.803	293.94
708.246	283.94
708.69	273.94
709.134	268.94
709.577	279.94
710.021	269.94
710.465	251.94
710.908	260.94
711.352	279.94
711.795	290.94
712.239	314.94
712.682	343.94
713.126	341.94
713.569	350.94
714.012	321.94
714.456	271.94
714.899	285.94
715.342	251.94
715.786	253.94
716.229	234.94
716.672	235.94
717.115	236.94
717.558	236.94
718.002	238.94
718.445	247.94
718.888	261.94
719.331	258.94
719.774	265.94
720.217	272.94
720.66	255.94
721.103	235.94
721.546	232.94
721.989	249.94
722.432	216.94
722.874	236.94
723.317	259.94
723.76	235.94
724.203	260.94
724.645	321.94
725.088	368.94
725.531	379.94
725.974	382.94
726.416	403.94
726.859	308.94
727.301	240.94
727.744	206.94
728.187	242.94
728.629	233.94
729.071	224.94
729.514	247.94
729.956	257.94
730.399	259.94
730.841	276.94
731.283	238.94
731.726	247.94
732.168	270.94
732.61	241.94
733.053	252.94
733.495	251.94
733.937	300.94
734.379	320.94
734.821	372.94
735.263	499.94
735.705	791.94
736.148	1289.94
736.59	1467.94
737.032	1394.94
737.474	1484.94
737.916	713.94
738.357	384.94
738.799	265.94
739.241	261.94
739.683	265.94
740.125	258.94
740.567	265.94
741.008	282.94
741.45	289.94
741.892	301.94
742.334	288.94
742.775	278.94
743.217	295.94
743.658	243.94
744.1	248.94
744.542	262.94
744.983	277.94
745.425	284.94
745.866	273.94
746.307	247.94
746.749	263.94
747.19	319.94
747.632	481.94
748.073	884.94
748.514	1345.94
748.956	1648.94
749.397	2151.94
749.838	1678.94
750.279	1433.94
750.72	1057.94
751.162	511.94
751.603	302.94
752.044	245.94
752.485	226.94
752.926	221.94
753.367	196.94
753.808	218.94
754.249	197.94
754.69	192.94
755.131	197.94
755.572	186.94
756.013	171.94
