Data from 20170802-ORNL-NYSim-Air_HRD10391_10-37-56-651.txt Node
Date: Wed Aug 02 10:37:56 EDT 2017
User: Ender
Spectrometer: HR+D1039
Trigger mode: 0
Integration Time (sec): 1.100000E-3
Scans to average: 1
Electric dark correction enabled: true
Nonlinearity correction enabled: false
Boxcar width: 0
XAxis mode: Wavelengths
Number of Pixels in Spectrum: 2048
>>>>>Begin Spectral Data<<<<<
187.836	6.44
188.309	6.44
188.782	6.44
189.255	0.44
189.728	-8.56
190.201	-19.56
190.674	-5.56
191.147	1.44
191.619	-12.56
192.092	-8.56
192.565	-2.56
193.038	-2.56
193.511	7.44
193.984	3.44
194.456	13.44
194.929	10.44
195.402	8.44
195.874	8.44
196.347	26.44
196.82	34.44
197.292	49.44
197.765	22.44
198.237	20.44
198.71	31.44
199.182	50.44
199.655	47.44
200.127	33.44
200.6	67.44
201.072	57.44
201.544	58.44
202.017	59.44
202.489	77.44
202.961	64.44
203.433	58.44
203.906	89.44
204.378	86.44
204.85	74.44
205.322	78.44
205.794	70.44
206.266	72.44
206.739	73.44
207.211	84.44
207.683	73.44
208.155	100.44
208.627	86.44
209.099	95.44
209.57	90.44
210.042	80.44
210.514	98.44
210.986	68.44
211.458	104.44
211.93	98.44
212.402	87.44
212.873	94.44
213.345	79.44
213.817	81.44
214.288	71.44
214.76	87.44
215.232	73.44
215.703	86.44
216.175	98.44
216.646	91.44
217.118	83.44
217.589	86.44
218.061	63.44
218.532	64.44
219.004	78.44
219.475	76.44
219.946	71.44
220.418	100.44
220.889	76.44
221.36	59.44
221.832	60.44
222.303	88.44
222.774	89.44
223.245	81.44
223.717	73.44
224.188	75.44
224.659	75.44
225.13	53.44
225.601	80.44
226.072	81.44
226.543	89.44
227.014	73.44
227.485	74.44
227.956	74.44
228.427	71.44
228.898	73.44
229.369	83.44
229.839	79.44
230.31	80.44
230.781	91.44
231.252	75.44
231.722	89.44
232.193	87.44
232.664	64.44
233.135	106.44
233.605	94.44
234.076	98.44
234.546	90.44
235.017	86.44
235.487	101.44
235.958	92.44
236.428	70.44
236.899	99.44
237.369	108.44
237.84	110.44
238.31	111.44
238.78	92.44
239.251	99.44
239.721	101.44
240.191	84.44
240.662	86.44
241.132	96.44
241.602	81.44
242.072	101.44
242.542	100.44
243.013	90.44
243.483	96.44
243.953	88.44
244.423	86.44
244.893	101.44
245.363	92.44
245.833	100.44
246.303	99.44
246.773	93.44
247.243	94.44
247.712	98.44
248.182	96.44
248.652	104.44
249.122	98.44
249.592	134.44
250.061	181.44
250.531	216.44
251.001	184.44
251.471	177.44
251.94	161.44
252.41	136.44
252.879	112.44
253.349	106.44
253.818	99.44
254.288	100.44
254.757	99.44
255.227	89.44
255.696	97.44
256.166	72.44
256.635	109.44
257.105	108.44
257.574	118.44
258.043	120.44
258.513	143.44
258.982	149.44
259.451	128.44
259.92	125.44
260.389	120.44
260.859	100.44
261.328	133.44
261.797	137.44
262.266	117.44
262.735	91.44
263.204	119.44
263.673	91.44
264.142	93.44
264.611	94.44
265.08	95.44
265.549	109.44
266.018	99.44
266.487	100.44
266.955	82.44
267.424	94.44
267.893	98.44
268.362	112.44
268.83	104.44
269.299	97.44
269.768	107.44
270.236	97.44
270.705	104.44
271.174	114.44
271.642	90.44
272.111	100.44
272.579	127.44
273.048	150.44
273.516	156.44
273.985	169.44
274.453	124.44
274.922	118.44
275.39	104.44
275.858	105.44
276.327	114.44
276.795	106.44
277.263	102.44
277.731	120.44
278.2	144.44
278.668	150.44
279.136	145.44
279.604	122.44
280.072	112.44
280.54	103.44
281.008	100.44
281.477	104.44
281.945	105.44
282.413	114.44
282.881	109.44
283.348	102.44
283.816	92.44
284.284	114.44
284.752	96.44
285.22	116.44
285.688	121.44
286.156	128.44
286.623	183.44
287.091	297.44
287.559	205.44
288.026	137.44
288.494	107.44
288.962	102.44
289.429	109.44
289.897	96.44
290.364	114.44
290.832	102.44
291.3	115.44
291.767	108.44
292.234	112.44
292.702	113.44
293.169	109.44
293.637	109.44
294.104	108.44
294.571	105.44
295.039	111.44
295.506	107.44
295.973	105.44
296.44	126.44
296.908	117.44
297.375	114.44
297.842	117.44
298.309	115.44
298.776	121.44
299.243	107.44
299.71	118.44
300.177	100.44
300.644	113.44
301.111	97.44
301.578	109.44
302.045	114.44
302.512	110.44
302.979	122.44
303.446	107.44
303.913	110.44
304.379	114.44
304.846	114.44
305.313	134.44
305.78	118.44
306.246	134.44
306.713	148.44
307.18	144.44
307.646	125.44
308.113	132.44
308.579	116.44
309.046	150.44
309.512	124.44
309.979	104.44
310.445	118.44
310.912	110.44
311.378	124.44
311.845	117.44
312.311	127.44
312.777	104.44
313.244	129.44
313.71	133.44
314.176	124.44
314.642	131.44
315.109	136.44
315.575	131.44
316.041	139.44
316.507	144.44
316.973	135.44
317.439	117.44
317.905	147.44
318.371	147.44
318.837	141.44
319.303	157.44
319.769	127.44
320.235	135.44
320.701	152.44
321.167	167.44
321.633	193.44
322.099	202.44
322.564	245.44
323.03	215.44
323.496	167.44
323.962	159.44
324.427	153.44
324.893	170.44
325.359	159.44
325.824	123.44
326.29	147.44
326.755	159.44
327.221	150.44
327.686	144.44
328.152	128.44
328.617	159.44
329.083	145.44
329.548	150.44
330.014	152.44
330.479	155.44
330.944	163.44
331.41	178.44
331.875	187.44
332.34	178.44
332.805	187.44
333.271	204.44
333.736	260.44
334.201	240.44
334.666	191.44
335.131	225.44
335.596	164.44
336.061	187.44
336.526	187.44
336.991	198.44
337.456	195.44
337.921	182.44
338.386	162.44
338.851	165.44
339.316	154.44
339.781	164.44
340.246	147.44
340.711	140.44
341.175	154.44
341.64	143.44
342.105	142.44
342.569	151.44
343.034	157.44
343.499	170.44
343.963	158.44
344.428	159.44
344.893	171.44
345.357	169.44
345.822	162.44
346.286	146.44
346.751	168.44
347.215	150.44
347.679	171.44
348.144	168.44
348.608	164.44
349.073	177.44
349.537	193.44
350.001	189.44
350.465	170.44
350.93	171.44
351.394	182.44
351.858	181.44
352.322	173.44
352.786	185.44
353.25	155.44
353.715	170.44
354.179	172.44
354.643	176.44
355.107	175.44
355.571	180.44
356.035	193.44
356.498	184.44
356.962	215.44
357.426	208.44
357.89	165.44
358.354	207.44
358.818	188.44
359.281	183.44
359.745	195.44
360.209	190.44
360.673	190.44
361.136	179.44
361.6	186.44
362.064	182.44
362.527	192.44
362.991	210.44
363.454	199.44
363.918	214.44
364.381	196.44
364.845	196.44
365.308	184.44
365.772	191.44
366.235	192.44
366.698	209.44
367.162	215.44
367.625	253.44
368.088	208.44
368.552	197.44
369.015	202.44
369.478	205.44
369.941	233.44
370.404	226.44
370.867	244.44
371.331	235.44
371.794	233.44
372.257	268.44
372.72	250.44
373.183	256.44
373.646	240.44
374.109	238.44
374.572	274.44
375.035	303.44
375.497	271.44
375.96	222.44
376.423	221.44
376.886	203.44
377.349	217.44
377.811	230.44
378.274	246.44
378.737	234.44
379.199	216.44
379.662	240.44
380.125	233.44
380.587	272.44
381.05	267.44
381.512	285.44
381.975	275.44
382.437	262.44
382.9	277.44
383.362	268.44
383.825	270.44
384.287	317.44
384.75	345.44
385.212	328.44
385.674	264.44
386.136	275.44
386.599	254.44
387.061	253.44
387.523	248.44
387.985	270.44
388.447	286.44
388.91	339.44
389.372	370.44
389.834	326.44
390.296	298.44
390.758	301.44
391.22	314.44
391.682	349.44
392.144	505.44
392.606	470.44
393.068	288.44
393.529	282.44
393.991	307.44
394.453	320.44
394.915	295.44
395.377	337.44
395.838	386.44
396.3	320.44
396.762	273.44
397.224	237.44
397.685	277.44
398.147	259.44
398.608	256.44
399.07	257.44
399.531	265.44
399.993	256.44
400.454	262.44
400.916	267.44
401.377	262.44
401.839	292.44
402.3	274.44
402.762	279.44
403.223	292.44
403.684	311.44
404.145	273.44
404.607	280.44
405.068	270.44
405.529	277.44
405.99	298.44
406.451	298.44
406.913	300.44
407.374	279.44
407.835	300.44
408.296	292.44
408.757	289.44
409.218	294.44
409.679	316.44
410.14	305.44
410.601	322.44
411.062	321.44
411.522	355.44
411.983	386.44
412.444	335.44
412.905	312.44
413.366	335.44
413.826	326.44
414.287	336.44
414.748	384.44
415.208	408.44
415.669	356.44
416.13	335.44
416.59	332.44
417.051	342.44
417.511	350.44
417.972	360.44
418.432	372.44
418.893	410.44
419.353	401.44
419.814	334.44
420.274	300.44
420.734	288.44
421.195	305.44
421.655	326.44
422.115	312.44
422.576	300.44
423.036	326.44
423.496	322.44
423.956	334.44
424.416	346.44
424.876	394.44
425.336	399.44
425.797	389.44
426.257	406.44
426.717	373.44
427.177	369.44
427.637	348.44
428.097	375.44
428.556	358.44
429.016	418.44
429.476	400.44
429.936	405.44
430.396	389.44
430.856	404.44
431.315	439.44
431.775	452.44
432.235	466.44
432.694	469.44
433.154	440.44
433.614	441.44
434.073	459.44
434.533	376.44
434.993	372.44
435.452	380.44
435.912	360.44
436.371	366.44
436.83	374.44
437.29	366.44
437.749	376.44
438.209	354.44
438.668	369.44
439.127	356.44
439.587	366.44
440.046	329.44
440.505	364.44
440.964	341.44
441.424	353.44
441.883	360.44
442.342	345.44
442.801	350.44
443.26	336.44
443.719	333.44
444.178	334.44
444.637	345.44
445.096	343.44
445.555	348.44
446.014	328.44
446.473	332.44
446.932	337.44
447.391	367.44
447.849	344.44
448.308	365.44
448.767	360.44
449.226	350.44
449.685	373.44
450.143	344.44
450.602	370.44
451.061	346.44
451.519	368.44
451.978	377.44
452.436	387.44
452.895	365.44
453.353	339.44
453.812	354.44
454.27	382.44
454.729	340.44
455.187	334.44
455.646	365.44
456.104	362.44
456.562	361.44
457.021	320.44
457.479	334.44
457.937	359.44
458.395	347.44
458.854	355.44
459.312	336.44
459.77	352.44
460.228	356.44
460.686	360.44
461.144	335.44
461.602	357.44
462.06	360.44
462.518	354.44
462.976	357.44
463.434	365.44
463.892	365.44
464.35	383.44
464.808	410.44
465.266	393.44
465.724	397.44
466.181	394.44
466.639	396.44
467.097	425.44
467.555	417.44
468.012	413.44
468.47	408.44
468.928	433.44
469.385	424.44
469.843	469.44
470.3	468.44
470.758	448.44
471.215	475.44
471.673	473.44
472.13	451.44
472.588	475.44
473.045	465.44
473.503	491.44
473.96	523.44
474.417	508.44
474.875	554.44
475.332	544.44
475.789	576.44
476.246	588.44
476.704	561.44
477.161	636.44
477.618	644.44
478.075	676.44
478.532	709.44
478.989	733.44
479.446	823.44
479.903	903.44
480.36	968.44
480.817	1002.44
481.274	1098.44
481.731	1203.44
482.188	1285.44
482.645	1440.44
483.102	1464.44
483.558	1556.44
484.015	1660.44
484.472	1677.44
484.929	1599.44
485.385	1514.44
485.842	1547.44
486.299	1430.44
486.755	1312.44
487.212	1175.44
487.668	1054.44
488.125	979.44
488.582	905.44
489.038	858.44
489.494	865.44
489.951	798.44
490.407	803.44
490.864	752.44
491.32	807.44
491.776	792.44
492.233	754.44
492.689	740.44
493.145	737.44
493.602	704.44
494.058	750.44
494.514	725.44
494.97	730.44
495.426	738.44
495.882	759.44
496.338	776.44
496.794	796.44
497.251	781.44
497.707	793.44
498.163	822.44
498.618	804.44
499.074	797.44
499.53	789.44
499.986	860.44
500.442	835.44
500.898	831.44
501.354	842.44
501.809	818.44
502.265	849.44
502.721	881.44
503.177	889.44
503.632	881.44
504.088	864.44
504.543	945.44
504.999	908.44
505.455	795.44
505.91	776.44
506.366	750.44
506.821	769.44
507.277	756.44
507.732	751.44
508.187	764.44
508.643	745.44
509.098	765.44
509.553	766.44
510.009	764.44
510.464	780.44
510.919	814.44
511.375	837.44
511.83	805.44
512.285	849.44
512.74	848.44
513.195	873.44
513.65	864.44
514.105	864.44
514.56	867.44
515.015	888.44
515.47	903.44
515.925	903.44
516.38	933.44
516.835	890.44
517.29	905.44
517.745	895.44
518.2	916.44
518.655	884.44
519.109	878.44
519.564	865.44
520.019	874.44
520.474	857.44
520.928	819.44
521.383	792.44
521.838	812.44
522.292	805.44
522.747	832.44
523.201	800.44
523.656	802.44
524.11	807.44
524.565	801.44
525.019	822.44
525.474	822.44
525.928	821.44
526.382	798.44
526.837	794.44
527.291	789.44
527.745	814.44
528.2	795.44
528.654	777.44
529.108	790.44
529.562	803.44
530.016	842.44
530.47	792.44
530.925	781.44
531.379	820.44
531.833	830.44
532.287	815.44
532.741	796.44
533.195	793.44
533.649	792.44
534.103	806.44
534.556	795.44
535.01	821.44
535.464	826.44
535.918	801.44
536.372	802.44
536.826	789.44
537.279	791.44
537.733	802.44
538.187	819.44
538.64	814.44
539.094	804.44
539.548	855.44
540.001	831.44
540.455	832.44
540.908	840.44
541.362	831.44
541.815	862.44
542.269	878.44
542.722	863.44
543.175	894.44
543.629	854.44
544.082	836.44
544.536	872.44
544.989	885.44
545.442	944.44
545.895	901.44
546.349	861.44
546.802	871.44
547.255	873.44
547.708	901.44
548.161	913.44
548.614	928.44
549.067	880.44
549.52	890.44
549.973	900.44
550.426	902.44
550.879	879.44
551.332	864.44
551.785	882.44
552.238	872.44
552.691	886.44
553.144	912.44
553.596	920.44
554.049	904.44
554.502	942.44
554.955	981.44
555.407	958.44
555.86	964.44
556.313	961.44
556.765	948.44
557.218	959.44
557.67	953.44
558.123	934.44
558.576	917.44
559.028	920.44
559.48	925.44
559.933	922.44
560.385	913.44
560.838	864.44
561.29	884.44
561.742	862.44
562.195	851.44
562.647	836.44
563.099	858.44
563.551	844.44
564.004	840.44
564.456	824.44
564.908	832.44
565.36	787.44
565.812	785.44
566.264	780.44
566.716	804.44
567.168	768.44
567.62	762.44
568.072	787.44
568.524	765.44
568.976	740.44
569.428	746.44
569.88	752.44
570.332	734.44
570.784	745.44
571.235	767.44
571.687	750.44
572.139	776.44
572.59	742.44
573.042	780.44
573.494	773.44
573.945	762.44
574.397	711.44
574.849	749.44
575.3	734.44
575.752	729.44
576.203	731.44
576.655	750.44
577.106	706.44
577.557	722.44
578.009	710.44
578.46	713.44
578.912	726.44
579.363	720.44
579.814	714.44
580.265	698.44
580.717	711.44
581.168	724.44
581.619	726.44
582.07	720.44
582.521	735.44
582.972	700.44
583.423	722.44
583.875	732.44
584.326	743.44
584.777	857.44
585.227	974.44
585.678	1080.44
586.129	1146.44
586.58	1202.44
587.031	1292.44
587.482	1343.44
587.933	1735.44
588.384	1549.44
588.834	1222.44
589.285	904.44
589.736	862.44
590.186	848.44
590.637	797.44
591.088	768.44
591.538	780.44
591.989	781.44
592.439	764.44
592.89	777.44
593.34	733.44
593.791	775.44
594.241	766.44
594.692	802.44
595.142	760.44
595.593	731.44
596.043	775.44
596.493	784.44
596.943	806.44
597.394	800.44
597.844	752.44
598.294	799.44
598.744	789.44
599.195	839.44
599.645	840.44
600.095	916.44
600.545	959.44
600.995	980.44
601.445	989.44
601.895	1068.44
602.345	1098.44
602.795	1074.44
603.245	1031.44
603.695	1031.44
604.145	916.44
604.594	910.44
605.044	871.44
605.494	805.44
605.944	771.44
606.393	766.44
606.843	751.44
607.293	747.44
607.743	749.44
608.192	724.44
608.642	774.44
609.091	755.44
609.541	776.44
609.99	758.44
610.44	747.44
610.889	739.44
611.339	736.44
611.788	707.44
612.238	730.44
612.687	736.44
613.136	753.44
613.586	780.44
614.035	782.44
614.484	753.44
614.933	804.44
615.383	768.44
615.832	766.44
616.281	710.44
616.73	711.44
617.179	698.44
617.628	653.44
618.077	701.44
618.526	667.44
618.975	667.44
619.424	644.44
619.873	646.44
620.322	641.44
620.771	642.44
621.22	651.44
621.669	618.44
622.118	639.44
622.567	598.44
623.015	615.44
623.464	612.44
623.913	588.44
624.361	598.44
624.81	612.44
625.259	600.44
625.707	581.44
626.156	620.44
626.604	612.44
627.053	587.44
627.501	602.44
627.95	594.44
628.398	611.44
628.847	590.44
629.295	603.44
629.744	606.44
630.192	620.44
630.64	617.44
631.089	681.44
631.537	721.44
631.985	755.44
632.433	765.44
632.881	748.44
633.33	824.44
633.778	1008.44
634.226	764.44
634.674	644.44
635.122	664.44
635.57	690.44
636.018	757.44
636.466	648.44
636.914	583.44
637.362	552.44
637.81	568.44
638.258	611.44
638.705	611.44
639.153	619.44
639.601	642.44
640.049	672.44
640.497	661.44
640.944	667.44
641.392	625.44
641.84	616.44
642.287	608.44
642.735	566.44
643.182	590.44
643.63	588.44
644.078	581.44
644.525	606.44
644.973	617.44
645.42	608.44
645.867	624.44
646.315	633.44
646.762	660.44
647.21	644.44
647.657	737.44
648.104	754.44
648.551	733.44
648.999	831.44
649.446	916.44
649.893	998.44
650.34	1102.44
650.787	1322.44
651.234	1689.44
651.682	2216.44
652.129	3162.44
652.576	4457.44
653.023	6323.44
653.47	7743.44
653.917	8667.44
654.363	9102.44
654.81	9770.44
655.257	10159.44
655.704	7711.44
656.151	4523.44
656.598	2906.44
657.044	2040.44
657.491	1601.44
657.938	1297.44
658.385	1101.44
658.831	949.44
659.278	845.44
659.724	776.44
660.171	735.44
660.618	651.44
661.064	652.44
661.511	606.44
661.957	613.44
662.404	583.44
662.85	576.44
663.296	578.44
663.743	545.44
664.189	520.44
664.635	520.44
665.082	540.44
665.528	544.44
665.974	543.44
666.42	507.44
666.867	525.44
667.313	544.44
667.759	576.44
668.205	584.44
668.651	599.44
669.097	582.44
669.543	626.44
669.989	617.44
670.435	514.44
670.881	486.44
671.327	505.44
671.773	540.44
672.219	539.44
672.665	585.44
673.11	593.44
673.556	617.44
674.002	602.44
674.448	628.44
674.893	566.44
675.339	497.44
675.785	463.44
676.23	430.44
676.676	421.44
677.122	423.44
677.567	406.44
678.013	403.44
678.458	389.44
678.904	399.44
679.349	385.44
679.794	372.44
680.24	364.44
680.685	391.44
681.131	387.44
681.576	377.44
682.021	366.44
682.466	386.44
682.912	384.44
683.357	396.44
683.802	438.44
684.247	467.44
684.692	494.44
685.137	528.44
685.583	519.44
686.028	512.44
686.473	510.44
686.918	485.44
687.363	437.44
687.807	417.44
688.252	394.44
688.697	386.44
689.142	380.44
689.587	392.44
690.032	400.44
690.477	400.44
690.921	373.44
691.366	410.44
691.811	435.44
692.255	450.44
692.7	504.44
693.145	604.44
693.589	897.44
694.034	1185.44
694.478	1284.44
694.923	1238.44
695.367	1475.44
695.812	1328.44
696.256	612.44
696.701	440.44
697.145	382.44
697.59	382.44
698.034	361.44
698.478	376.44
698.922	358.44
699.367	378.44
699.811	376.44
700.255	398.44
700.699	428.44
701.143	460.44
701.588	488.44
702.032	514.44
702.476	488.44
702.92	512.44
703.364	568.44
703.808	835.44
704.252	1129.44
704.696	1233.44
705.14	1188.44
705.584	1450.44
706.027	1190.44
706.471	618.44
706.915	449.44
707.359	411.44
707.803	371.44
708.246	340.44
708.69	324.44
709.134	354.44
709.577	331.44
710.021	344.44
710.465	340.44
710.908	346.44
711.352	330.44
711.795	360.44
712.239	394.44
712.682	419.44
713.126	421.44
713.569	438.44
714.012	412.44
714.456	348.44
714.899	335.44
715.342	307.44
715.786	312.44
716.229	295.44
716.672	294.44
717.115	292.44
717.558	292.44
718.002	306.44
718.445	300.44
718.888	310.44
719.331	316.44
719.774	347.44
720.217	325.44
720.66	308.44
721.103	293.44
721.546	328.44
721.989	309.44
722.432	283.44
722.874	296.44
723.317	274.44
723.76	288.44
724.203	326.44
724.645	418.44
725.088	496.44
725.531	505.44
725.974	526.44
726.416	545.44
726.859	397.44
727.301	324.44
727.744	287.44
728.187	278.44
728.629	280.44
729.071	285.44
729.514	310.44
729.956	342.44
730.399	314.44
730.841	315.44
731.283	321.44
731.726	322.44
732.168	322.44
732.61	312.44
733.053	315.44
733.495	358.44
733.937	394.44
734.379	444.44
734.821	488.44
735.263	670.44
735.705	1103.44
736.148	1741.44
736.59	2010.44
737.032	1907.44
737.474	2039.44
737.916	1010.44
738.357	516.44
738.799	368.44
739.241	336.44
739.683	347.44
740.125	358.44
740.567	357.44
741.008	348.44
741.45	402.44
741.892	395.44
742.334	378.44
742.775	382.44
743.217	381.44
743.658	342.44
744.1	324.44
744.542	346.44
744.983	365.44
745.425	365.44
745.866	382.44
746.307	354.44
746.749	363.44
747.19	415.44
747.632	670.44
748.073	1247.44
748.514	1864.44
748.956	2204.44
749.397	3011.44
749.838	2422.44
750.279	1998.44
750.72	1541.44
751.162	697.44
751.603	389.44
752.044	297.44
752.485	300.44
752.926	249.44
753.367	251.44
753.808	256.44
