Data from 20170802-ORNL-NYSim-Air_HRD10391_10-38-07-656.txt Node
Date: Wed Aug 02 10:38:07 EDT 2017
User: Ender
Spectrometer: HR+D1039
Trigger mode: 0
Integration Time (sec): 1.100000E-3
Scans to average: 1
Electric dark correction enabled: true
Nonlinearity correction enabled: false
Boxcar width: 0
XAxis mode: Wavelengths
Number of Pixels in Spectrum: 2048
>>>>>Begin Spectral Data<<<<<
187.836	8.94
188.309	8.94
188.782	8.94
189.255	-3.06
189.728	-16.06
190.201	1.94
190.674	1.94
191.147	-2.06
191.619	-13.06
192.092	0.94
192.565	-11.06
193.038	-0.06
193.511	-7.06
193.984	-2.06
194.456	-4.06
194.929	8.94
195.402	8.94
195.874	26.94
196.347	10.94
196.82	12.94
197.292	26.94
197.765	36.94
198.237	41.94
198.71	30.94
199.182	56.94
199.655	68.94
200.127	54.94
200.6	60.94
201.072	66.94
201.544	76.94
202.017	62.94
202.489	62.94
202.961	70.94
203.433	59.94
203.906	62.94
204.378	68.94
204.85	81.94
205.322	77.94
205.794	85.94
206.266	74.94
206.739	88.94
207.211	97.94
207.683	74.94
208.155	102.94
208.627	82.94
209.099	84.94
209.57	73.94
210.042	93.94
210.514	86.94
210.986	94.94
211.458	85.94
211.93	67.94
212.402	92.94
212.873	81.94
213.345	84.94
213.817	97.94
214.288	96.94
214.76	82.94
215.232	90.94
215.703	84.94
216.175	86.94
216.646	88.94
217.118	81.94
217.589	79.94
218.061	74.94
218.532	71.94
219.004	77.94
219.475	64.94
219.946	89.94
220.418	74.94
220.889	86.94
221.36	78.94
221.832	70.94
222.303	69.94
222.774	67.94
223.245	80.94
223.717	76.94
224.188	83.94
224.659	62.94
225.13	68.94
225.601	76.94
226.072	56.94
226.543	84.94
227.014	78.94
227.485	82.94
227.956	89.94
228.427	70.94
228.898	77.94
229.369	73.94
229.839	49.94
230.31	73.94
230.781	86.94
231.252	72.94
231.722	81.94
232.193	92.94
232.664	94.94
233.135	102.94
233.605	81.94
234.076	98.94
234.546	94.94
235.017	80.94
235.487	76.94
235.958	74.94
236.428	88.94
236.899	75.94
237.369	80.94
237.84	82.94
238.31	96.94
238.78	91.94
239.251	92.94
239.721	91.94
240.191	81.94
240.662	87.94
241.132	79.94
241.602	88.94
242.072	86.94
242.542	90.94
243.013	103.94
243.483	79.94
243.953	73.94
244.423	94.94
244.893	87.94
245.363	96.94
245.833	90.94
246.303	78.94
246.773	80.94
247.243	103.94
247.712	104.94
248.182	85.94
248.652	104.94
249.122	104.94
249.592	130.94
250.061	156.94
250.531	174.94
251.001	162.94
251.471	149.94
251.94	133.94
252.41	94.94
252.879	97.94
253.349	94.94
253.818	91.94
254.288	83.94
254.757	95.94
255.227	106.94
255.696	90.94
256.166	91.94
256.635	96.94
257.105	92.94
257.574	91.94
258.043	100.94
258.513	110.94
258.982	128.94
259.451	111.94
259.92	112.94
260.389	122.94
260.859	104.94
261.328	100.94
261.797	129.94
262.266	112.94
262.735	98.94
263.204	106.94
263.673	96.94
264.142	87.94
264.611	96.94
265.08	75.94
265.549	97.94
266.018	101.94
266.487	84.94
266.955	94.94
267.424	85.94
267.893	91.94
268.362	86.94
268.83	95.94
269.299	88.94
269.768	103.94
270.236	100.94
270.705	85.94
271.174	95.94
271.642	104.94
272.111	91.94
272.579	108.94
273.048	134.94
273.516	145.94
273.985	148.94
274.453	147.94
274.922	124.94
275.39	106.94
275.858	104.94
276.327	83.94
276.795	79.94
277.263	99.94
277.731	103.94
278.2	123.94
278.668	150.94
279.136	139.94
279.604	124.94
280.072	100.94
280.54	107.94
281.008	104.94
281.477	97.94
281.945	101.94
282.413	94.94
282.881	98.94
283.348	98.94
283.816	98.94
284.284	106.94
284.752	112.94
285.22	96.94
285.688	115.94
286.156	105.94
286.623	159.94
287.091	228.94
287.559	163.94
288.026	109.94
288.494	84.94
288.962	98.94
289.429	96.94
289.897	116.94
290.364	96.94
290.832	103.94
291.3	106.94
291.767	101.94
292.234	96.94
292.702	92.94
293.169	112.94
293.637	98.94
294.104	102.94
294.571	120.94
295.039	106.94
295.506	118.94
295.973	96.94
296.44	99.94
296.908	111.94
297.375	112.94
297.842	101.94
298.309	110.94
298.776	100.94
299.243	112.94
299.71	101.94
300.177	101.94
300.644	98.94
301.111	110.94
301.578	106.94
302.045	108.94
302.512	99.94
302.979	105.94
303.446	112.94
303.913	114.94
304.379	115.94
304.846	103.94
305.313	110.94
305.78	116.94
306.246	129.94
306.713	144.94
307.18	136.94
307.646	117.94
308.113	132.94
308.579	125.94
309.046	113.94
309.512	136.94
309.979	122.94
310.445	117.94
310.912	120.94
311.378	114.94
311.845	130.94
312.311	132.94
312.777	114.94
313.244	129.94
313.71	121.94
314.176	130.94
314.642	137.94
315.109	133.94
315.575	131.94
316.041	118.94
316.507	130.94
316.973	118.94
317.439	129.94
317.905	115.94
318.371	144.94
318.837	116.94
319.303	129.94
319.769	129.94
320.235	133.94
320.701	142.94
321.167	152.94
321.633	149.94
322.099	175.94
322.564	202.94
323.03	169.94
323.496	156.94
323.962	164.94
324.427	136.94
324.893	139.94
325.359	141.94
325.824	135.94
326.29	131.94
326.755	136.94
327.221	124.94
327.686	124.94
328.152	129.94
328.617	140.94
329.083	130.94
329.548	141.94
330.014	140.94
330.479	138.94
330.944	150.94
331.41	154.94
331.875	153.94
332.34	150.94
332.805	176.94
333.271	188.94
333.736	220.94
334.201	217.94
334.666	182.94
335.131	207.94
335.596	190.94
336.061	170.94
336.526	175.94
336.991	154.94
337.456	173.94
337.921	162.94
338.386	158.94
338.851	158.94
339.316	134.94
339.781	150.94
340.246	144.94
340.711	128.94
341.175	140.94
341.64	138.94
342.105	154.94
342.569	150.94
343.034	138.94
343.499	130.94
343.963	132.94
344.428	145.94
344.893	146.94
345.357	166.94
345.822	141.94
346.286	146.94
346.751	153.94
347.215	147.94
347.679	169.94
348.144	162.94
348.608	164.94
349.073	136.94
349.537	166.94
350.001	170.94
350.465	188.94
350.93	173.94
351.394	182.94
351.858	164.94
352.322	164.94
352.786	179.94
353.25	168.94
353.715	174.94
354.179	152.94
354.643	199.94
355.107	191.94
355.571	192.94
356.035	176.94
356.498	186.94
356.962	198.94
357.426	176.94
357.89	176.94
358.354	177.94
358.818	160.94
359.281	174.94
359.745	165.94
360.209	185.94
360.673	157.94
361.136	179.94
361.6	172.94
362.064	164.94
362.527	182.94
362.991	180.94
363.454	201.94
363.918	196.94
364.381	193.94
364.845	184.94
365.308	166.94
365.772	175.94
366.235	177.94
366.698	193.94
367.162	194.94
367.625	226.94
368.088	214.94
368.552	157.94
369.015	178.94
369.478	202.94
369.941	208.94
370.404	181.94
370.867	207.94
371.331	214.94
371.794	218.94
372.257	226.94
372.72	243.94
373.183	220.94
373.646	233.94
374.109	234.94
374.572	249.94
375.035	280.94
375.497	249.94
375.96	188.94
376.423	202.94
376.886	191.94
377.349	212.94
377.811	212.94
378.274	201.94
378.737	211.94
379.199	204.94
379.662	206.94
380.125	214.94
380.587	228.94
381.05	260.94
381.512	232.94
381.975	238.94
382.437	248.94
382.9	234.94
383.362	212.94
383.825	266.94
384.287	301.94
384.75	302.94
385.212	289.94
385.674	253.94
386.136	249.94
386.599	243.94
387.061	256.94
387.523	234.94
387.985	256.94
388.447	264.94
388.91	265.94
389.372	304.94
389.834	297.94
390.296	264.94
390.758	266.94
391.22	278.94
391.682	304.94
392.144	430.94
392.606	424.94
393.068	303.94
393.529	284.94
393.991	270.94
394.453	283.94
394.915	271.94
395.377	321.94
395.838	346.94
396.3	286.94
396.762	243.94
397.224	237.94
397.685	232.94
398.147	224.94
398.608	245.94
399.07	242.94
399.531	244.94
399.993	244.94
400.454	259.94
400.916	239.94
401.377	236.94
401.839	268.94
402.3	262.94
402.762	271.94
403.223	273.94
403.684	271.94
404.145	251.94
404.607	271.94
405.068	270.94
405.529	282.94
405.99	276.94
406.451	275.94
406.913	260.94
407.374	258.94
407.835	272.94
408.296	280.94
408.757	262.94
409.218	282.94
409.679	290.94
410.14	273.94
410.601	264.94
411.062	304.94
411.522	301.94
411.983	337.94
412.444	310.94
412.905	270.94
413.366	278.94
413.826	294.94
414.287	347.94
414.748	386.94
415.208	381.94
415.669	319.94
416.13	321.94
416.59	298.94
417.051	306.94
417.511	331.94
417.972	326.94
418.432	335.94
418.893	389.94
419.353	359.94
419.814	305.94
420.274	278.94
420.734	276.94
421.195	300.94
421.655	330.94
422.115	316.94
422.576	291.94
423.036	296.94
423.496	308.94
423.956	314.94
424.416	325.94
424.876	358.94
425.336	371.94
425.797	362.94
426.257	348.94
426.717	360.94
427.177	327.94
427.637	322.94
428.097	340.94
428.556	358.94
429.016	377.94
429.476	395.94
429.936	382.94
430.396	381.94
430.856	373.94
431.315	401.94
431.775	427.94
432.235	440.94
432.694	440.94
433.154	398.94
433.614	409.94
434.073	404.94
434.533	377.94
434.993	353.94
435.452	396.94
435.912	333.94
436.371	349.94
436.83	344.94
437.29	341.94
437.749	338.94
438.209	326.94
438.668	328.94
439.127	351.94
439.587	346.94
440.046	306.94
440.505	340.94
440.964	324.94
441.424	333.94
441.883	346.94
442.342	324.94
442.801	316.94
443.26	308.94
443.719	317.94
444.178	329.94
444.637	315.94
445.096	298.94
445.555	325.94
446.014	341.94
446.473	316.94
446.932	324.94
447.391	342.94
447.849	320.94
448.308	330.94
448.767	329.94
449.226	344.94
449.685	318.94
450.143	355.94
450.602	341.94
451.061	331.94
451.519	353.94
451.978	347.94
452.436	352.94
452.895	336.94
453.353	358.94
453.812	336.94
454.27	340.94
454.729	318.94
455.187	349.94
455.646	328.94
456.104	344.94
456.562	331.94
457.021	321.94
457.479	325.94
457.937	326.94
458.395	335.94
458.854	328.94
459.312	316.94
459.77	356.94
460.228	353.94
460.686	343.94
461.144	324.94
461.602	357.94
462.06	339.94
462.518	344.94
462.976	351.94
463.434	358.94
463.892	359.94
464.35	339.94
464.808	370.94
465.266	342.94
465.724	368.94
466.181	361.94
466.639	330.94
467.097	364.94
467.555	366.94
468.012	384.94
468.47	380.94
468.928	398.94
469.385	393.94
469.843	386.94
470.3	387.94
470.758	393.94
471.215	405.94
471.673	420.94
472.13	440.94
472.588	431.94
473.045	455.94
473.503	466.94
473.96	478.94
474.417	467.94
474.875	490.94
475.332	512.94
475.789	523.94
476.246	539.94
476.704	550.94
477.161	595.94
477.618	584.94
478.075	602.94
478.532	630.94
478.989	723.94
479.446	777.94
479.903	828.94
480.36	880.94
480.817	942.94
481.274	1030.94
481.731	1111.94
482.188	1162.94
482.645	1289.94
483.102	1362.94
483.558	1445.94
484.015	1487.94
484.472	1550.94
484.929	1493.94
485.385	1416.94
485.842	1375.94
486.299	1298.94
486.755	1202.94
487.212	1082.94
487.668	978.94
488.125	884.94
488.582	824.94
489.038	788.94
489.494	763.94
489.951	755.94
490.407	724.94
490.864	715.94
491.32	688.94
491.776	681.94
492.233	706.94
492.689	703.94
493.145	668.94
493.602	650.94
494.058	664.94
494.514	693.94
494.97	690.94
495.426	674.94
495.882	703.94
496.338	689.94
496.794	712.94
497.251	685.94
497.707	745.94
498.163	718.94
498.618	739.94
499.074	707.94
499.53	726.94
499.986	746.94
500.442	756.94
500.898	780.94
501.354	760.94
501.809	752.94
502.265	779.94
502.721	780.94
503.177	797.94
503.632	794.94
504.088	786.94
504.543	849.94
504.999	812.94
505.455	742.94
505.91	720.94
506.366	714.94
506.821	689.94
507.277	706.94
507.732	689.94
508.187	675.94
508.643	701.94
509.098	696.94
509.553	708.94
510.009	694.94
510.464	714.94
510.919	758.94
511.375	740.94
511.83	760.94
512.285	780.94
512.74	772.94
513.195	779.94
513.65	816.94
514.105	853.94
514.56	804.94
515.015	845.94
515.47	822.94
515.925	828.94
516.38	825.94
516.835	837.94
517.29	821.94
517.745	814.94
518.2	808.94
518.655	831.94
519.109	798.94
519.564	787.94
520.019	772.94
520.474	790.94
520.928	777.94
521.383	774.94
521.838	762.94
522.292	763.94
522.747	776.94
523.201	760.94
523.656	752.94
524.11	754.94
524.565	741.94
525.019	746.94
525.474	741.94
525.928	728.94
526.382	735.94
526.837	736.94
527.291	716.94
527.745	704.94
528.2	710.94
528.654	729.94
529.108	718.94
529.562	733.94
530.016	709.94
530.47	732.94
530.925	707.94
531.379	730.94
531.833	752.94
532.287	756.94
532.741	745.94
533.195	724.94
533.649	717.94
534.103	723.94
534.556	715.94
535.01	762.94
535.464	734.94
535.918	711.94
536.372	739.94
536.826	740.94
537.279	722.94
537.733	727.94
538.187	741.94
538.64	758.94
539.094	720.94
539.548	729.94
540.001	752.94
540.455	750.94
540.908	745.94
541.362	732.94
541.815	774.94
542.269	785.94
542.722	750.94
543.175	781.94
543.629	761.94
544.082	776.94
544.536	801.94
544.989	810.94
545.442	811.94
545.895	782.94
546.349	781.94
546.802	800.94
547.255	821.94
547.708	813.94
548.161	814.94
548.614	800.94
549.067	808.94
549.52	821.94
549.973	832.94
550.426	809.94
550.879	790.94
551.332	800.94
551.785	800.94
552.238	821.94
552.691	810.94
553.144	852.94
553.596	835.94
554.049	835.94
554.502	864.94
554.955	874.94
555.407	874.94
555.86	890.94
556.313	879.94
556.765	859.94
557.218	870.94
557.67	853.94
558.123	861.94
558.576	817.94
559.028	824.94
559.48	868.94
559.933	841.94
560.385	827.94
560.838	784.94
561.29	806.94
561.742	780.94
562.195	801.94
562.647	760.94
563.099	741.94
563.551	788.94
564.004	785.94
564.456	788.94
564.908	774.94
565.36	727.94
565.812	716.94
566.264	708.94
566.716	683.94
567.168	702.94
567.62	686.94
568.072	689.94
568.524	686.94
568.976	690.94
569.428	687.94
569.88	694.94
570.332	684.94
570.784	681.94
571.235	674.94
571.687	713.94
572.139	682.94
572.59	678.94
573.042	679.94
573.494	681.94
573.945	704.94
574.397	688.94
574.849	673.94
575.3	673.94
575.752	671.94
576.203	662.94
576.655	670.94
577.106	663.94
577.557	656.94
578.009	663.94
578.46	672.94
578.912	656.94
579.363	686.94
579.814	668.94
580.265	665.94
580.717	656.94
581.168	645.94
581.619	646.94
582.07	634.94
582.521	631.94
582.972	676.94
583.423	628.94
583.875	672.94
584.326	694.94
584.777	780.94
585.227	835.94
585.678	916.94
586.129	968.94
586.58	992.94
587.031	1025.94
587.482	1074.94
587.933	1345.94
588.384	1221.94
588.834	966.94
589.285	781.94
589.736	748.94
590.186	755.94
590.637	737.94
591.088	708.94
591.538	740.94
591.989	702.94
592.439	694.94
592.89	722.94
593.34	710.94
593.791	694.94
594.241	680.94
594.692	701.94
595.142	705.94
595.593	719.94
596.043	688.94
596.493	703.94
596.943	715.94
597.394	695.94
597.844	692.94
598.294	692.94
598.744	705.94
599.195	757.94
599.645	788.94
600.095	798.94
600.545	847.94
600.995	891.94
601.445	936.94
601.895	953.94
602.345	979.94
602.795	940.94
603.245	952.94
603.695	872.94
604.145	864.94
604.594	816.94
605.044	786.94
605.494	780.94
605.944	699.94
606.393	710.94
606.843	688.94
607.293	680.94
607.743	664.94
608.192	668.94
608.642	704.94
609.091	667.94
609.541	687.94
609.99	688.94
610.44	670.94
610.889	655.94
611.339	654.94
611.788	642.94
612.238	670.94
612.687	675.94
613.136	673.94
613.586	675.94
614.035	690.94
614.484	681.94
614.933	672.94
615.383	684.94
615.832	681.94
616.281	664.94
616.73	637.94
617.179	620.94
617.628	588.94
618.077	585.94
618.526	613.94
618.975	590.94
619.424	587.94
619.873	619.94
620.322	598.94
620.771	605.94
621.22	581.94
621.669	564.94
622.118	567.94
622.567	568.94
623.015	551.94
623.464	548.94
623.913	537.94
624.361	544.94
624.81	558.94
625.259	539.94
625.707	516.94
626.156	538.94
626.604	528.94
627.053	566.94
627.501	524.94
627.95	562.94
628.398	568.94
628.847	562.94
629.295	557.94
629.744	536.94
630.192	538.94
630.64	569.94
631.089	598.94
631.537	616.94
631.985	634.94
632.433	647.94
632.881	667.94
633.33	680.94
633.778	826.94
634.226	634.94
634.674	582.94
635.122	582.94
635.57	581.94
636.018	641.94
636.466	587.94
636.914	530.94
637.362	522.94
637.81	541.94
638.258	578.94
638.705	556.94
639.153	555.94
639.601	578.94
640.049	579.94
640.497	591.94
640.944	591.94
641.392	580.94
641.84	566.94
642.287	536.94
642.735	528.94
643.182	532.94
643.63	543.94
644.078	510.94
644.525	521.94
644.973	535.94
645.42	558.94
645.867	562.94
646.315	582.94
646.762	604.94
647.21	615.94
647.657	644.94
648.104	647.94
648.551	683.94
648.999	745.94
649.446	832.94
649.893	883.94
650.34	1032.94
650.787	1246.94
651.234	1528.94
651.682	2028.94
652.129	2844.94
652.576	4098.94
653.023	5746.94
653.47	7052.94
653.917	7860.94
654.363	8366.94
654.81	8801.94
655.257	9264.94
655.704	7079.94
656.151	4114.94
656.598	2626.94
657.044	1834.94
657.491	1443.94
657.938	1126.94
658.385	950.94
658.831	844.94
659.278	760.94
659.724	722.94
660.171	659.94
660.618	598.94
661.064	604.94
661.511	546.94
661.957	566.94
662.404	532.94
662.85	525.94
663.296	522.94
663.743	486.94
664.189	479.94
664.635	486.94
665.082	496.94
665.528	480.94
665.974	475.94
666.42	490.94
666.867	489.94
667.313	477.94
667.759	541.94
668.205	523.94
668.651	511.94
669.097	512.94
669.543	559.94
669.989	586.94
670.435	448.94
670.881	433.94
671.327	470.94
671.773	472.94
672.219	497.94
672.665	507.94
673.11	542.94
673.556	510.94
674.002	570.94
674.448	592.94
674.893	529.94
675.339	441.94
675.785	423.94
676.23	410.94
676.676	381.94
677.122	391.94
677.567	364.94
678.013	364.94
678.458	357.94
678.904	347.94
679.349	353.94
679.794	356.94
680.24	359.94
680.685	334.94
681.131	353.94
681.576	324.94
682.021	348.94
682.466	369.94
682.912	359.94
683.357	390.94
683.802	396.94
684.247	438.94
684.692	440.94
685.137	471.94
685.583	462.94
686.028	494.94
686.473	481.94
686.918	415.94
687.363	398.94
687.807	371.94
688.252	376.94
688.697	353.94
689.142	342.94
689.587	348.94
690.032	343.94
690.477	361.94
690.921	358.94
691.366	368.94
691.811	405.94
692.255	408.94
692.7	458.94
693.145	566.94
693.589	855.94
694.034	1128.94
694.478	1212.94
694.923	1140.94
695.367	1353.94
695.812	1274.94
696.256	566.94
696.701	409.94
697.145	365.94
697.59	340.94
698.034	322.94
698.478	358.94
698.922	350.94
699.367	318.94
699.811	348.94
700.255	360.94
700.699	414.94
701.143	427.94
701.588	453.94
702.032	464.94
702.476	460.94
702.92	484.94
703.364	559.94
703.808	787.94
704.252	1036.94
704.696	1171.94
705.14	1082.94
705.584	1340.94
706.027	1100.94
706.471	560.94
706.915	412.94
707.359	356.94
707.803	355.94
708.246	308.94
708.69	330.94
709.134	320.94
709.577	316.94
710.021	333.94
710.465	302.94
710.908	333.94
711.352	318.94
711.795	338.94
712.239	379.94
712.682	389.94
713.126	366.94
713.569	429.94
714.012	389.94
714.456	325.94
714.899	346.94
715.342	300.94
715.786	309.94
716.229	284.94
716.672	275.94
717.115	289.94
717.558	278.94
718.002	286.94
718.445	295.94
718.888	291.94
719.331	285.94
719.774	313.94
720.217	330.94
720.66	309.94
721.103	294.94
721.546	278.94
721.989	285.94
722.432	279.94
722.874	279.94
723.317	274.94
723.76	278.94
724.203	303.94
724.645	379.94
725.088	478.94
725.531	486.94
725.974	455.94
726.416	524.94
726.859	346.94
727.301	310.94
727.744	280.94
728.187	273.94
728.629	246.94
729.071	270.94
729.514	285.94
729.956	290.94
730.399	302.94
730.841	290.94
731.283	300.94
731.726	298.94
732.168	304.94
732.61	303.94
733.053	292.94
733.495	330.94
733.937	354.94
734.379	414.94
734.821	465.94
735.263	620.94
735.705	1038.94
736.148	1645.94
736.59	1878.94
737.032	1740.94
737.474	1872.94
737.916	961.94
738.357	476.94
738.799	338.94
739.241	328.94
739.683	322.94
740.125	294.94
740.567	328.94
741.008	316.94
741.45	338.94
741.892	357.94
742.334	364.94
742.775	342.94
743.217	347.94
743.658	312.94
744.1	278.94
744.542	332.94
744.983	336.94
745.425	350.94
745.866	351.94
746.307	341.94
746.749	348.94
747.19	384.94
747.632	591.94
748.073	1118.94
748.514	1700.94
748.956	2098.94
749.397	2728.94
749.838	2217.94
750.279	1812.94
750.72	1390.94
751.162	624.94
751.603	376.94
752.044	288.94
752.485	248.94
752.926	240.94
753.367	235.94
753.808	228.94
754.249	224.94
754.69	238.94
