Data from 20170802-ORNL-NYSim-Air_HRD10391_10-38-20-660.txt Node
Date: Wed Aug 02 10:38:20 EDT 2017
User: Ender
Spectrometer: HR+D1039
Trigger mode: 0
Integration Time (sec): 1.100000E-3
Scans to average: 1
Electric dark correction enabled: true
Nonlinearity correction enabled: false
Boxcar width: 0
XAxis mode: Wavelengths
Number of Pixels in Spectrum: 2048
>>>>>Begin Spectral Data<<<<<
187.836	22.06
188.309	22.06
188.782	22.06
189.255	-4.94
189.728	-14.94
190.201	-3.94
190.674	0.06
191.147	-1.94
191.619	-13.94
192.092	-12.94
192.565	7.06
193.038	-0.94
193.511	-1.94
193.984	-4.94
194.456	9.06
194.929	12.06
195.402	8.06
195.874	2.06
196.347	11.06
196.82	20.06
197.292	31.06
197.765	28.06
198.237	26.06
198.71	23.06
199.182	36.06
199.655	44.06
200.127	51.06
200.6	41.06
201.072	54.06
201.544	58.06
202.017	64.06
202.489	54.06
202.961	66.06
203.433	72.06
203.906	74.06
204.378	72.06
204.85	82.06
205.322	75.06
205.794	66.06
206.266	60.06
206.739	82.06
207.211	91.06
207.683	75.06
208.155	63.06
208.627	87.06
209.099	84.06
209.57	67.06
210.042	84.06
210.514	92.06
210.986	83.06
211.458	80.06
211.93	82.06
212.402	85.06
212.873	79.06
213.345	83.06
213.817	72.06
214.288	87.06
214.76	76.06
215.232	63.06
215.703	75.06
216.175	90.06
216.646	73.06
217.118	84.06
217.589	95.06
218.061	86.06
218.532	61.06
219.004	86.06
219.475	95.06
219.946	91.06
220.418	92.06
220.889	79.06
221.36	85.06
221.832	79.06
222.303	69.06
222.774	66.06
223.245	77.06
223.717	72.06
224.188	69.06
224.659	71.06
225.13	64.06
225.601	99.06
226.072	82.06
226.543	74.06
227.014	84.06
227.485	69.06
227.956	54.06
228.427	88.06
228.898	74.06
229.369	81.06
229.839	76.06
230.31	75.06
230.781	92.06
231.252	94.06
231.722	94.06
232.193	87.06
232.664	74.06
233.135	81.06
233.605	92.06
234.076	76.06
234.546	76.06
235.017	80.06
235.487	78.06
235.958	64.06
236.428	78.06
236.899	90.06
237.369	102.06
237.84	79.06
238.31	78.06
238.78	86.06
239.251	84.06
239.721	88.06
240.191	81.06
240.662	84.06
241.132	108.06
241.602	84.06
242.072	83.06
242.542	75.06
243.013	91.06
243.483	63.06
243.953	84.06
244.423	94.06
244.893	72.06
245.363	78.06
245.833	86.06
246.303	99.06
246.773	85.06
247.243	89.06
247.712	89.06
248.182	99.06
248.652	74.06
249.122	99.06
249.592	136.06
250.061	133.06
250.531	212.06
251.001	182.06
251.471	159.06
251.94	136.06
252.41	121.06
252.879	107.06
253.349	90.06
253.818	87.06
254.288	90.06
254.757	110.06
255.227	92.06
255.696	104.06
256.166	104.06
256.635	94.06
257.105	83.06
257.574	100.06
258.043	90.06
258.513	125.06
258.982	118.06
259.451	109.06
259.92	122.06
260.389	113.06
260.859	103.06
261.328	96.06
261.797	112.06
262.266	130.06
262.735	82.06
263.204	86.06
263.673	80.06
264.142	97.06
264.611	86.06
265.08	86.06
265.549	99.06
266.018	90.06
266.487	98.06
266.955	78.06
267.424	94.06
267.893	97.06
268.362	77.06
268.83	103.06
269.299	86.06
269.768	101.06
270.236	108.06
270.705	100.06
271.174	89.06
271.642	102.06
272.111	115.06
272.579	107.06
273.048	120.06
273.516	140.06
273.985	140.06
274.453	143.06
274.922	112.06
275.39	101.06
275.858	99.06
276.327	101.06
276.795	88.06
277.263	97.06
277.731	102.06
278.2	130.06
278.668	132.06
279.136	133.06
279.604	102.06
280.072	99.06
280.54	99.06
281.008	99.06
281.477	91.06
281.945	96.06
282.413	98.06
282.881	87.06
283.348	113.06
283.816	119.06
284.284	104.06
284.752	110.06
285.22	96.06
285.688	104.06
286.156	122.06
286.623	179.06
287.091	290.06
287.559	196.06
288.026	112.06
288.494	100.06
288.962	110.06
289.429	96.06
289.897	88.06
290.364	93.06
290.832	91.06
291.3	83.06
291.767	96.06
292.234	90.06
292.702	88.06
293.169	103.06
293.637	111.06
294.104	99.06
294.571	103.06
295.039	101.06
295.506	97.06
295.973	89.06
296.44	95.06
296.908	113.06
297.375	91.06
297.842	88.06
298.309	92.06
298.776	106.06
299.243	106.06
299.71	107.06
300.177	91.06
300.644	101.06
301.111	102.06
301.578	112.06
302.045	111.06
302.512	110.06
302.979	118.06
303.446	95.06
303.913	102.06
304.379	96.06
304.846	116.06
305.313	124.06
305.78	109.06
306.246	137.06
306.713	139.06
307.18	139.06
307.646	119.06
308.113	129.06
308.579	118.06
309.046	111.06
309.512	110.06
309.979	102.06
310.445	112.06
310.912	113.06
311.378	103.06
311.845	106.06
312.311	111.06
312.777	133.06
313.244	104.06
313.71	106.06
314.176	103.06
314.642	133.06
315.109	133.06
315.575	122.06
316.041	123.06
316.507	118.06
316.973	134.06
317.439	120.06
317.905	139.06
318.371	124.06
318.837	110.06
319.303	131.06
319.769	112.06
320.235	122.06
320.701	138.06
321.167	141.06
321.633	147.06
322.099	188.06
322.564	239.06
323.03	198.06
323.496	155.06
323.962	137.06
324.427	145.06
324.893	144.06
325.359	148.06
325.824	111.06
326.29	130.06
326.755	132.06
327.221	116.06
327.686	142.06
328.152	125.06
328.617	126.06
329.083	120.06
329.548	127.06
330.014	123.06
330.479	148.06
330.944	154.06
331.41	158.06
331.875	159.06
332.34	169.06
332.805	168.06
333.271	196.06
333.736	222.06
334.201	246.06
334.666	194.06
335.131	200.06
335.596	164.06
336.061	189.06
336.526	183.06
336.991	184.06
337.456	165.06
337.921	145.06
338.386	138.06
338.851	141.06
339.316	134.06
339.781	129.06
340.246	134.06
340.711	138.06
341.175	138.06
341.64	131.06
342.105	136.06
342.569	144.06
343.034	142.06
343.499	139.06
343.963	130.06
344.428	147.06
344.893	149.06
345.357	150.06
345.822	142.06
346.286	130.06
346.751	153.06
347.215	142.06
347.679	170.06
348.144	143.06
348.608	152.06
349.073	162.06
349.537	161.06
350.001	181.06
350.465	150.06
350.93	157.06
351.394	144.06
351.858	158.06
352.322	133.06
352.786	164.06
353.25	146.06
353.715	154.06
354.179	162.06
354.643	159.06
355.107	156.06
355.571	160.06
356.035	174.06
356.498	158.06
356.962	208.06
357.426	197.06
357.89	164.06
358.354	151.06
358.818	165.06
359.281	163.06
359.745	162.06
360.209	171.06
360.673	159.06
361.136	174.06
361.6	160.06
362.064	168.06
362.527	154.06
362.991	175.06
363.454	148.06
363.918	167.06
364.381	179.06
364.845	164.06
365.308	170.06
365.772	164.06
366.235	184.06
366.698	179.06
367.162	204.06
367.625	220.06
368.088	185.06
368.552	147.06
369.015	199.06
369.478	202.06
369.941	177.06
370.404	188.06
370.867	186.06
371.331	216.06
371.794	197.06
372.257	244.06
372.72	240.06
373.183	216.06
373.646	198.06
374.109	188.06
374.572	246.06
375.035	263.06
375.497	225.06
375.96	206.06
376.423	192.06
376.886	173.06
377.349	183.06
377.811	190.06
378.274	203.06
378.737	198.06
379.199	188.06
379.662	212.06
380.125	211.06
380.587	200.06
381.05	240.06
381.512	260.06
381.975	240.06
382.437	226.06
382.9	244.06
383.362	229.06
383.825	246.06
384.287	292.06
384.75	303.06
385.212	290.06
385.674	248.06
386.136	234.06
386.599	209.06
387.061	238.06
387.523	224.06
387.985	256.06
388.447	257.06
388.91	255.06
389.372	319.06
389.834	304.06
390.296	258.06
390.758	270.06
391.22	247.06
391.682	306.06
392.144	423.06
392.606	419.06
393.068	253.06
393.529	249.06
393.991	230.06
394.453	257.06
394.915	254.06
395.377	298.06
395.838	366.06
396.3	272.06
396.762	242.06
397.224	222.06
397.685	196.06
398.147	223.06
398.608	223.06
399.07	212.06
399.531	211.06
399.993	236.06
400.454	222.06
400.916	233.06
401.377	232.06
401.839	232.06
402.3	251.06
402.762	238.06
403.223	263.06
403.684	278.06
404.145	245.06
404.607	244.06
405.068	246.06
405.529	237.06
405.99	247.06
406.451	257.06
406.913	251.06
407.374	252.06
407.835	248.06
408.296	256.06
408.757	240.06
409.218	257.06
409.679	259.06
410.14	238.06
410.601	268.06
411.062	278.06
411.522	302.06
411.983	323.06
412.444	303.06
412.905	273.06
413.366	283.06
413.826	272.06
414.287	287.06
414.748	331.06
415.208	332.06
415.669	301.06
416.13	289.06
416.59	285.06
417.051	270.06
417.511	292.06
417.972	312.06
418.432	315.06
418.893	346.06
419.353	324.06
419.814	284.06
420.274	258.06
420.734	247.06
421.195	269.06
421.655	289.06
422.115	286.06
422.576	272.06
423.036	281.06
423.496	250.06
423.956	280.06
424.416	308.06
424.876	329.06
425.336	324.06
425.797	330.06
426.257	336.06
426.717	295.06
427.177	287.06
427.637	311.06
428.097	313.06
428.556	334.06
429.016	346.06
429.476	358.06
429.936	354.06
430.396	333.06
430.856	346.06
431.315	354.06
431.775	376.06
432.235	395.06
432.694	377.06
433.154	373.06
433.614	377.06
434.073	368.06
434.533	335.06
434.993	309.06
435.452	320.06
435.912	311.06
436.371	290.06
436.83	332.06
437.29	327.06
437.749	307.06
438.209	291.06
438.668	303.06
439.127	338.06
439.587	300.06
440.046	310.06
440.505	337.06
440.964	290.06
441.424	319.06
441.883	307.06
442.342	286.06
442.801	275.06
443.26	266.06
443.719	289.06
444.178	299.06
444.637	282.06
445.096	297.06
445.555	304.06
446.014	275.06
446.473	276.06
446.932	270.06
447.391	284.06
447.849	280.06
448.308	297.06
448.767	312.06
449.226	344.06
449.685	303.06
450.143	318.06
450.602	298.06
451.061	321.06
451.519	311.06
451.978	306.06
452.436	328.06
452.895	303.06
453.353	295.06
453.812	302.06
454.27	299.06
454.729	312.06
455.187	284.06
455.646	304.06
456.104	303.06
456.562	282.06
457.021	308.06
457.479	298.06
457.937	294.06
458.395	281.06
458.854	309.06
459.312	298.06
459.77	300.06
460.228	306.06
460.686	307.06
461.144	304.06
461.602	294.06
462.06	305.06
462.518	307.06
462.976	332.06
463.434	314.06
463.892	316.06
464.35	315.06
464.808	314.06
465.266	325.06
465.724	322.06
466.181	334.06
466.639	330.06
467.097	316.06
467.555	345.06
468.012	348.06
468.47	340.06
468.928	352.06
469.385	353.06
469.843	372.06
470.3	382.06
470.758	359.06
471.215	370.06
471.673	402.06
472.13	385.06
472.588	398.06
473.045	408.06
473.503	404.06
473.96	435.06
474.417	428.06
474.875	449.06
475.332	472.06
475.789	434.06
476.246	467.06
476.704	526.06
477.161	477.06
477.618	503.06
478.075	540.06
478.532	614.06
478.989	624.06
479.446	711.06
479.903	758.06
480.36	792.06
480.817	854.06
481.274	920.06
481.731	984.06
482.188	1059.06
482.645	1174.06
483.102	1240.06
483.558	1336.06
484.015	1429.06
484.472	1412.06
484.929	1369.06
485.385	1315.06
485.842	1267.06
486.299	1210.06
486.755	1082.06
487.212	980.06
487.668	894.06
488.125	822.06
488.582	738.06
489.038	717.06
489.494	672.06
489.951	670.06
490.407	658.06
490.864	644.06
491.32	623.06
491.776	619.06
492.233	631.06
492.689	652.06
493.145	604.06
493.602	599.06
494.058	613.06
494.514	637.06
494.97	618.06
495.426	630.06
495.882	618.06
496.338	629.06
496.794	651.06
497.251	662.06
497.707	639.06
498.163	659.06
498.618	640.06
499.074	666.06
499.53	681.06
499.986	689.06
500.442	696.06
500.898	702.06
501.354	703.06
501.809	708.06
502.265	705.06
502.721	771.06
503.177	761.06
503.632	742.06
504.088	739.06
504.543	789.06
504.999	748.06
505.455	650.06
505.91	637.06
506.366	605.06
506.821	638.06
507.277	640.06
507.732	620.06
508.187	624.06
508.643	608.06
509.098	622.06
509.553	630.06
510.009	622.06
510.464	640.06
510.919	638.06
511.375	676.06
511.83	685.06
512.285	688.06
512.74	708.06
513.195	711.06
513.65	740.06
514.105	731.06
514.56	714.06
515.015	738.06
515.47	739.06
515.925	732.06
516.38	753.06
516.835	746.06
517.29	763.06
517.745	718.06
518.2	734.06
518.655	716.06
519.109	720.06
519.564	746.06
520.019	698.06
520.474	682.06
520.928	689.06
521.383	666.06
521.838	699.06
522.292	699.06
522.747	681.06
523.201	669.06
523.656	651.06
524.11	647.06
524.565	668.06
525.019	686.06
525.474	657.06
525.928	672.06
526.382	647.06
526.837	650.06
527.291	667.06
527.745	653.06
528.2	679.06
528.654	654.06
529.108	655.06
529.562	650.06
530.016	650.06
530.47	656.06
530.925	664.06
531.379	681.06
531.833	673.06
532.287	670.06
532.741	667.06
533.195	662.06
533.649	659.06
534.103	669.06
534.556	672.06
535.01	650.06
535.464	657.06
535.918	666.06
536.372	699.06
536.826	667.06
537.279	661.06
537.733	651.06
538.187	636.06
538.64	667.06
539.094	659.06
539.548	699.06
540.001	697.06
540.455	679.06
540.908	684.06
541.362	682.06
541.815	676.06
542.269	721.06
542.722	740.06
543.175	714.06
543.629	736.06
544.082	701.06
544.536	715.06
544.989	709.06
545.442	756.06
545.895	727.06
546.349	707.06
546.802	724.06
547.255	732.06
547.708	726.06
548.161	737.06
548.614	716.06
549.067	749.06
549.52	741.06
549.973	697.06
550.426	698.06
550.879	733.06
551.332	684.06
551.785	721.06
552.238	742.06
552.691	725.06
553.144	749.06
553.596	740.06
554.049	748.06
554.502	774.06
554.955	795.06
555.407	824.06
555.86	788.06
556.313	790.06
556.765	802.06
557.218	774.06
557.67	784.06
558.123	784.06
558.576	771.06
559.028	744.06
559.48	778.06
559.933	786.06
560.385	733.06
560.838	726.06
561.29	685.06
561.742	697.06
562.195	693.06
562.647	689.06
563.099	666.06
563.551	684.06
564.004	674.06
564.456	678.06
564.908	647.06
565.36	638.06
565.812	652.06
566.264	657.06
566.716	605.06
567.168	610.06
567.62	615.06
568.072	630.06
568.524	652.06
568.976	605.06
569.428	630.06
569.88	591.06
570.332	610.06
570.784	622.06
571.235	631.06
571.687	611.06
572.139	605.06
572.59	628.06
573.042	663.06
573.494	634.06
573.945	633.06
574.397	613.06
574.849	625.06
575.3	595.06
575.752	583.06
576.203	599.06
576.655	607.06
577.106	596.06
577.557	594.06
578.009	570.06
578.46	604.06
578.912	594.06
579.363	611.06
579.814	578.06
580.265	571.06
580.717	604.06
581.168	563.06
581.619	591.06
582.07	591.06
582.521	583.06
582.972	577.06
583.423	605.06
583.875	626.06
584.326	625.06
584.777	716.06
585.227	802.06
585.678	860.06
586.129	895.06
586.58	916.06
587.031	968.06
587.482	986.06
587.933	1265.06
588.384	1157.06
588.834	949.06
589.285	750.06
589.736	644.06
590.186	652.06
590.637	666.06
591.088	660.06
591.538	670.06
591.989	652.06
592.439	608.06
592.89	649.06
593.34	612.06
593.791	638.06
594.241	674.06
594.692	646.06
595.142	651.06
595.593	629.06
596.043	656.06
596.493	630.06
596.943	658.06
597.394	654.06
597.844	601.06
598.294	628.06
598.744	644.06
599.195	678.06
599.645	711.06
600.095	711.06
600.545	780.06
600.995	786.06
601.445	860.06
601.895	868.06
602.345	888.06
602.795	886.06
603.245	836.06
603.695	793.06
604.145	751.06
604.594	760.06
605.044	716.06
605.494	636.06
605.944	648.06
606.393	627.06
606.843	618.06
607.293	616.06
607.743	626.06
608.192	637.06
608.642	638.06
609.091	611.06
609.541	638.06
609.99	640.06
610.44	591.06
610.889	644.06
611.339	594.06
611.788	600.06
612.238	600.06
612.687	601.06
613.136	612.06
613.586	622.06
614.035	646.06
614.484	631.06
614.933	690.06
615.383	625.06
615.832	621.06
616.281	602.06
616.73	571.06
617.179	569.06
617.628	570.06
618.077	564.06
618.526	566.06
618.975	547.06
619.424	527.06
619.873	582.06
620.322	525.06
620.771	548.06
621.22	551.06
621.669	550.06
622.118	524.06
622.567	528.06
623.015	502.06
623.464	498.06
623.913	494.06
624.361	510.06
624.81	495.06
625.259	500.06
625.707	513.06
626.156	489.06
626.604	504.06
627.053	492.06
627.501	496.06
627.95	503.06
628.398	498.06
628.847	510.06
629.295	511.06
629.744	496.06
630.192	506.06
630.64	574.06
631.089	605.06
631.537	638.06
631.985	662.06
632.433	638.06
632.881	690.06
633.33	749.06
633.778	937.06
634.226	634.06
634.674	577.06
635.122	573.06
635.57	568.06
636.018	656.06
636.466	605.06
636.914	506.06
637.362	482.06
637.81	493.06
638.258	513.06
638.705	491.06
639.153	542.06
639.601	519.06
640.049	534.06
640.497	517.06
640.944	539.06
641.392	540.06
641.84	534.06
642.287	505.06
642.735	503.06
643.182	517.06
643.63	475.06
644.078	500.06
644.525	492.06
644.973	472.06
645.42	498.06
645.867	512.06
646.315	509.06
646.762	546.06
647.21	546.06
647.657	601.06
648.104	616.06
648.551	633.06
648.999	679.06
649.446	725.06
649.893	804.06
650.34	914.06
650.787	1116.06
651.234	1417.06
651.682	1880.06
652.129	2687.06
652.576	3924.06
653.023	5397.06
653.47	6683.06
653.917	7448.06
654.363	8003.06
654.81	8358.06
655.257	8845.06
655.704	6547.06
656.151	3913.06
656.598	2458.06
657.044	1710.06
657.491	1347.06
657.938	1052.06
658.385	899.06
658.831	780.06
659.278	690.06
659.724	676.06
660.171	589.06
660.618	577.06
661.064	560.06
661.511	524.06
661.957	481.06
662.404	481.06
662.85	484.06
663.296	480.06
663.743	460.06
664.189	455.06
664.635	455.06
665.082	449.06
665.528	455.06
665.974	441.06
666.42	439.06
666.867	454.06
667.313	459.06
667.759	497.06
668.205	514.06
668.651	508.06
669.097	482.06
669.543	538.06
669.989	534.06
670.435	427.06
670.881	397.06
671.327	403.06
671.773	442.06
672.219	482.06
672.665	480.06
673.11	490.06
673.556	500.06
674.002	501.06
674.448	552.06
674.893	469.06
675.339	429.06
675.785	389.06
676.23	381.06
676.676	355.06
677.122	358.06
677.567	368.06
678.013	330.06
678.458	315.06
678.904	362.06
679.349	338.06
679.794	319.06
680.24	350.06
680.685	333.06
681.131	308.06
681.576	334.06
682.021	314.06
682.466	325.06
682.912	333.06
683.357	350.06
683.802	360.06
684.247	386.06
684.692	420.06
685.137	420.06
685.583	434.06
686.028	437.06
686.473	455.06
686.918	411.06
687.363	361.06
687.807	382.06
688.252	350.06
688.697	331.06
689.142	308.06
689.587	304.06
690.032	330.06
690.477	324.06
690.921	341.06
691.366	357.06
691.811	367.06
692.255	386.06
692.7	429.06
693.145	541.06
693.589	742.06
694.034	961.06
694.478	1091.06
694.923	1028.06
695.367	1192.06
695.812	1098.06
696.256	512.06
696.701	367.06
697.145	338.06
697.59	315.06
698.034	318.06
698.478	318.06
698.922	326.06
699.367	334.06
699.811	322.06
700.255	339.06
700.699	362.06
701.143	380.06
701.588	404.06
702.032	409.06
702.476	450.06
702.92	438.06
703.364	488.06
703.808	707.06
704.252	911.06
704.696	1046.06
705.14	987.06
705.584	1207.06
706.027	975.06
706.471	524.06
706.915	382.06
707.359	336.06
707.803	325.06
708.246	312.06
708.69	299.06
709.134	293.06
709.577	288.06
710.021	315.06
710.465	303.06
710.908	310.06
711.352	312.06
711.795	294.06
712.239	361.06
712.682	386.06
713.126	360.06
713.569	386.06
714.012	356.06
714.456	307.06
714.899	298.06
715.342	272.06
715.786	273.06
716.229	265.06
716.672	256.06
717.115	283.06
717.558	263.06
718.002	276.06
718.445	279.06
718.888	285.06
719.331	292.06
719.774	290.06
720.217	302.06
720.66	278.06
721.103	266.06
721.546	278.06
721.989	246.06
722.432	264.06
722.874	239.06
723.317	248.06
723.76	267.06
724.203	286.06
724.645	358.06
725.088	405.06
725.531	445.06
725.974	434.06
726.416	455.06
726.859	328.06
727.301	271.06
727.744	232.06
728.187	251.06
728.629	258.06
729.071	256.06
729.514	255.06
729.956	255.06
730.399	262.06
730.841	286.06
731.283	278.06
731.726	251.06
732.168	266.06
732.61	259.06
733.053	319.06
733.495	323.06
733.937	309.06
734.379	379.06
734.821	424.06
735.263	556.06
735.705	898.06
736.148	1425.06
736.59	1678.06
737.032	1547.06
737.474	1628.06
737.916	810.06
738.357	430.06
738.799	320.06
739.241	292.06
739.683	296.06
740.125	272.06
740.567	309.06
741.008	311.06
741.45	321.06
741.892	320.06
742.334	322.06
742.775	328.06
743.217	329.06
743.658	293.06
744.1	270.06
744.542	301.06
744.983	299.06
745.425	294.06
745.866	318.06
746.307	311.06
746.749	301.06
747.19	352.06
747.632	574.06
748.073	1010.06
748.514	1496.06
748.956	1846.06
749.397	2455.06
749.838	1947.06
750.279	1626.06
750.72	1176.06
751.162	595.06
751.603	341.06
752.044	264.06
752.485	222.06
752.926	226.06
753.367	240.06
753.808	203.06
754.249	220.06
754.69	233.06
755.131	221.06
755.572	206.06
