Data from 20170802-ORNL-NYSim-Air_HRD10391_10-38-48-672.txt Node
Date: Wed Aug 02 10:38:48 EDT 2017
User: Ender
Spectrometer: HR+D1039
Trigger mode: 0
Integration Time (sec): 1.100000E-3
Scans to average: 1
Electric dark correction enabled: true
Nonlinearity correction enabled: false
Boxcar width: 0
XAxis mode: Wavelengths
Number of Pixels in Spectrum: 2048
>>>>>Begin Spectral Data<<<<<
187.836	0.69
188.309	0.69
188.782	0.69
189.255	-13.31
189.728	6.69
190.201	1.69
190.674	-5.31
191.147	-16.31
191.619	-11.31
192.092	-18.31
192.565	-0.31
193.038	1.69
193.511	-10.31
193.984	1.69
194.456	14.69
194.929	20.69
195.402	10.69
195.874	16.69
196.347	28.69
196.82	22.69
197.292	23.69
197.765	28.69
198.237	38.69
198.71	36.69
199.182	37.69
199.655	37.69
200.127	60.69
200.6	48.69
201.072	67.69
201.544	57.69
202.017	54.69
202.489	59.69
202.961	63.69
203.433	71.69
203.906	81.69
204.378	68.69
204.85	86.69
205.322	81.69
205.794	89.69
206.266	69.69
206.739	84.69
207.211	85.69
207.683	81.69
208.155	93.69
208.627	78.69
209.099	98.69
209.57	96.69
210.042	90.69
210.514	95.69
210.986	88.69
211.458	69.69
211.93	83.69
212.402	91.69
212.873	84.69
213.345	82.69
213.817	79.69
214.288	85.69
214.76	87.69
215.232	79.69
215.703	83.69
216.175	73.69
216.646	80.69
217.118	67.69
217.589	68.69
218.061	71.69
218.532	65.69
219.004	71.69
219.475	83.69
219.946	78.69
220.418	69.69
220.889	93.69
221.36	91.69
221.832	72.69
222.303	65.69
222.774	79.69
223.245	93.69
223.717	73.69
224.188	61.69
224.659	87.69
225.13	68.69
225.601	91.69
226.072	75.69
226.543	80.69
227.014	69.69
227.485	72.69
227.956	93.69
228.427	92.69
228.898	83.69
229.369	81.69
229.839	65.69
230.31	75.69
230.781	82.69
231.252	63.69
231.722	84.69
232.193	74.69
232.664	72.69
233.135	80.69
233.605	77.69
234.076	60.69
234.546	65.69
235.017	88.69
235.487	77.69
235.958	80.69
236.428	80.69
236.899	77.69
237.369	91.69
237.84	76.69
238.31	84.69
238.78	71.69
239.251	85.69
239.721	73.69
240.191	89.69
240.662	92.69
241.132	83.69
241.602	94.69
242.072	80.69
242.542	90.69
243.013	78.69
243.483	71.69
243.953	81.69
244.423	81.69
244.893	88.69
245.363	87.69
245.833	89.69
246.303	77.69
246.773	93.69
247.243	92.69
247.712	96.69
248.182	95.69
248.652	93.69
249.122	65.69
249.592	101.69
250.061	127.69
250.531	135.69
251.001	123.69
251.471	109.69
251.94	111.69
252.41	93.69
252.879	98.69
253.349	88.69
253.818	74.69
254.288	78.69
254.757	77.69
255.227	96.69
255.696	106.69
256.166	94.69
256.635	83.69
257.105	75.69
257.574	75.69
258.043	91.69
258.513	99.69
258.982	130.69
259.451	89.69
259.92	95.69
260.389	90.69
260.859	99.69
261.328	87.69
261.797	107.69
262.266	103.69
262.735	94.69
263.204	100.69
263.673	100.69
264.142	86.69
264.611	81.69
265.08	76.69
265.549	96.69
266.018	81.69
266.487	81.69
266.955	75.69
267.424	87.69
267.893	90.69
268.362	87.69
268.83	73.69
269.299	82.69
269.768	93.69
270.236	79.69
270.705	106.69
271.174	90.69
271.642	94.69
272.111	101.69
272.579	112.69
273.048	92.69
273.516	115.69
273.985	126.69
274.453	118.69
274.922	101.69
275.39	97.69
275.858	94.69
276.327	85.69
276.795	83.69
277.263	97.69
277.731	103.69
278.2	114.69
278.668	99.69
279.136	112.69
279.604	99.69
280.072	96.69
280.54	90.69
281.008	104.69
281.477	107.69
281.945	104.69
282.413	101.69
282.881	105.69
283.348	108.69
283.816	83.69
284.284	95.69
284.752	92.69
285.22	99.69
285.688	99.69
286.156	118.69
286.623	153.69
287.091	219.69
287.559	149.69
288.026	106.69
288.494	96.69
288.962	85.69
289.429	97.69
289.897	96.69
290.364	79.69
290.832	96.69
291.3	90.69
291.767	75.69
292.234	90.69
292.702	103.69
293.169	100.69
293.637	89.69
294.104	89.69
294.571	85.69
295.039	90.69
295.506	88.69
295.973	80.69
296.44	93.69
296.908	76.69
297.375	95.69
297.842	99.69
298.309	95.69
298.776	90.69
299.243	105.69
299.71	98.69
300.177	100.69
300.644	100.69
301.111	99.69
301.578	100.69
302.045	102.69
302.512	98.69
302.979	87.69
303.446	110.69
303.913	111.69
304.379	96.69
304.846	102.69
305.313	108.69
305.78	96.69
306.246	126.69
306.713	108.69
307.18	101.69
307.646	111.69
308.113	104.69
308.579	105.69
309.046	92.69
309.512	100.69
309.979	95.69
310.445	99.69
310.912	113.69
311.378	92.69
311.845	89.69
312.311	109.69
312.777	101.69
313.244	98.69
313.71	112.69
314.176	114.69
314.642	112.69
315.109	112.69
315.575	110.69
316.041	122.69
316.507	111.69
316.973	109.69
317.439	122.69
317.905	147.69
318.371	109.69
318.837	118.69
319.303	100.69
319.769	96.69
320.235	126.69
320.701	122.69
321.167	132.69
321.633	141.69
322.099	155.69
322.564	168.69
323.03	171.69
323.496	148.69
323.962	132.69
324.427	143.69
324.893	112.69
325.359	115.69
325.824	112.69
326.29	133.69
326.755	130.69
327.221	120.69
327.686	115.69
328.152	130.69
328.617	105.69
329.083	105.69
329.548	107.69
330.014	124.69
330.479	123.69
330.944	129.69
331.41	122.69
331.875	145.69
332.34	132.69
332.805	131.69
333.271	167.69
333.736	191.69
334.201	163.69
334.666	147.69
335.131	166.69
335.596	141.69
336.061	151.69
336.526	144.69
336.991	134.69
337.456	165.69
337.921	142.69
338.386	137.69
338.851	117.69
339.316	123.69
339.781	121.69
340.246	123.69
340.711	117.69
341.175	111.69
341.64	91.69
342.105	109.69
342.569	109.69
343.034	104.69
343.499	135.69
343.963	110.69
344.428	107.69
344.893	132.69
345.357	122.69
345.822	127.69
346.286	141.69
346.751	131.69
347.215	133.69
347.679	130.69
348.144	117.69
348.608	140.69
349.073	132.69
349.537	118.69
350.001	129.69
350.465	135.69
350.93	127.69
351.394	140.69
351.858	152.69
352.322	128.69
352.786	133.69
353.25	135.69
353.715	111.69
354.179	134.69
354.643	141.69
355.107	154.69
355.571	137.69
356.035	165.69
356.498	142.69
356.962	144.69
357.426	145.69
357.89	132.69
358.354	141.69
358.818	152.69
359.281	141.69
359.745	151.69
360.209	133.69
360.673	144.69
361.136	119.69
361.6	153.69
362.064	150.69
362.527	163.69
362.991	131.69
363.454	148.69
363.918	135.69
364.381	148.69
364.845	159.69
365.308	125.69
365.772	141.69
366.235	161.69
366.698	155.69
367.162	164.69
367.625	182.69
368.088	168.69
368.552	140.69
369.015	151.69
369.478	151.69
369.941	147.69
370.404	158.69
370.867	158.69
371.331	146.69
371.794	163.69
372.257	183.69
372.72	181.69
373.183	181.69
373.646	195.69
374.109	178.69
374.572	199.69
375.035	234.69
375.497	200.69
375.96	153.69
376.423	163.69
376.886	140.69
377.349	119.69
377.811	158.69
378.274	151.69
378.737	169.69
379.199	160.69
379.662	179.69
380.125	166.69
380.587	205.69
381.05	206.69
381.512	199.69
381.975	186.69
382.437	159.69
382.9	185.69
383.362	191.69
383.825	171.69
384.287	200.69
384.75	259.69
385.212	219.69
385.674	189.69
386.136	191.69
386.599	171.69
387.061	204.69
387.523	197.69
387.985	197.69
388.447	185.69
388.91	199.69
389.372	260.69
389.834	230.69
390.296	199.69
390.758	200.69
391.22	229.69
391.682	203.69
392.144	308.69
392.606	315.69
393.068	205.69
393.529	202.69
393.991	182.69
394.453	197.69
394.915	214.69
395.377	231.69
395.838	271.69
396.3	203.69
396.762	195.69
397.224	179.69
397.685	165.69
398.147	156.69
398.608	179.69
399.07	167.69
399.531	174.69
399.993	190.69
400.454	186.69
400.916	189.69
401.377	198.69
401.839	205.69
402.3	167.69
402.762	194.69
403.223	211.69
403.684	185.69
404.145	202.69
404.607	181.69
405.068	207.69
405.529	185.69
405.99	220.69
406.451	197.69
406.913	201.69
407.374	189.69
407.835	170.69
408.296	169.69
408.757	180.69
409.218	201.69
409.679	193.69
410.14	204.69
410.601	199.69
411.062	201.69
411.522	230.69
411.983	241.69
412.444	224.69
412.905	217.69
413.366	226.69
413.826	220.69
414.287	226.69
414.748	247.69
415.208	245.69
415.669	238.69
416.13	201.69
416.59	221.69
417.051	194.69
417.511	237.69
417.972	215.69
418.432	221.69
418.893	275.69
419.353	267.69
419.814	224.69
420.274	217.69
420.734	208.69
421.195	225.69
421.655	216.69
422.115	215.69
422.576	203.69
423.036	236.69
423.496	237.69
423.956	233.69
424.416	227.69
424.876	265.69
425.336	255.69
425.797	257.69
426.257	259.69
426.717	248.69
427.177	246.69
427.637	226.69
428.097	245.69
428.556	265.69
429.016	266.69
429.476	263.69
429.936	257.69
430.396	263.69
430.856	258.69
431.315	283.69
431.775	295.69
432.235	304.69
432.694	294.69
433.154	287.69
433.614	280.69
434.073	294.69
434.533	263.69
434.993	252.69
435.452	247.69
435.912	255.69
436.371	265.69
436.83	257.69
437.29	243.69
437.749	235.69
438.209	237.69
438.668	235.69
439.127	239.69
439.587	244.69
440.046	237.69
440.505	229.69
440.964	239.69
441.424	234.69
441.883	259.69
442.342	256.69
442.801	219.69
443.26	243.69
443.719	239.69
444.178	219.69
444.637	207.69
445.096	239.69
445.555	219.69
446.014	230.69
446.473	236.69
446.932	219.69
447.391	231.69
447.849	231.69
448.308	235.69
448.767	227.69
449.226	238.69
449.685	238.69
450.143	260.69
450.602	259.69
451.061	247.69
451.519	255.69
451.978	244.69
452.436	264.69
452.895	257.69
453.353	241.69
453.812	262.69
454.27	232.69
454.729	245.69
455.187	227.69
455.646	273.69
456.104	250.69
456.562	251.69
457.021	253.69
457.479	246.69
457.937	231.69
458.395	242.69
458.854	250.69
459.312	234.69
459.77	215.69
460.228	209.69
460.686	263.69
461.144	249.69
461.602	252.69
462.06	243.69
462.518	211.69
462.976	234.69
463.434	240.69
463.892	247.69
464.35	246.69
464.808	242.69
465.266	261.69
465.724	254.69
466.181	252.69
466.639	266.69
467.097	274.69
467.555	283.69
468.012	262.69
468.47	296.69
468.928	269.69
469.385	281.69
469.843	275.69
470.3	288.69
470.758	297.69
471.215	271.69
471.673	297.69
472.13	302.69
472.588	333.69
473.045	315.69
473.503	329.69
473.96	309.69
474.417	331.69
474.875	317.69
475.332	347.69
475.789	347.69
476.246	334.69
476.704	370.69
477.161	391.69
477.618	396.69
478.075	404.69
478.532	442.69
478.989	475.69
479.446	511.69
479.903	521.69
480.36	581.69
480.817	625.69
481.274	697.69
481.731	763.69
482.188	813.69
482.645	851.69
483.102	917.69
483.558	999.69
484.015	1041.69
484.472	1046.69
484.929	1010.69
485.385	970.69
485.842	945.69
486.299	880.69
486.755	799.69
487.212	743.69
487.668	639.69
488.125	600.69
488.582	566.69
489.038	557.69
489.494	520.69
489.951	519.69
490.407	501.69
490.864	505.69
491.32	478.69
491.776	466.69
492.233	483.69
492.689	462.69
493.145	447.69
493.602	448.69
494.058	474.69
494.514	500.69
494.97	489.69
495.426	481.69
495.882	480.69
496.338	472.69
496.794	513.69
497.251	536.69
497.707	517.69
498.163	511.69
498.618	512.69
499.074	515.69
499.53	523.69
499.986	519.69
500.442	515.69
500.898	529.69
501.354	521.69
501.809	531.69
502.265	551.69
502.721	561.69
503.177	586.69
503.632	546.69
504.088	561.69
504.543	593.69
504.999	583.69
505.455	479.69
505.91	487.69
506.366	473.69
506.821	464.69
507.277	454.69
507.732	473.69
508.187	488.69
508.643	485.69
509.098	473.69
509.553	462.69
510.009	462.69
510.464	477.69
510.919	506.69
511.375	515.69
511.83	495.69
512.285	517.69
512.74	530.69
513.195	538.69
513.65	535.69
514.105	536.69
514.56	557.69
515.015	580.69
515.47	599.69
515.925	534.69
516.38	563.69
516.835	568.69
517.29	578.69
517.745	552.69
518.2	562.69
518.655	549.69
519.109	566.69
519.564	518.69
520.019	545.69
520.474	513.69
520.928	527.69
521.383	534.69
521.838	513.69
522.292	519.69
522.747	517.69
523.201	495.69
523.656	489.69
524.11	511.69
524.565	499.69
525.019	505.69
525.474	516.69
525.928	513.69
526.382	503.69
526.837	501.69
527.291	499.69
527.745	484.69
528.2	518.69
528.654	490.69
529.108	516.69
529.562	489.69
530.016	478.69
530.47	503.69
530.925	496.69
531.379	503.69
531.833	506.69
532.287	492.69
532.741	509.69
533.195	511.69
533.649	500.69
534.103	505.69
534.556	529.69
535.01	505.69
535.464	489.69
535.918	497.69
536.372	488.69
536.826	486.69
537.279	517.69
537.733	494.69
538.187	488.69
538.64	516.69
539.094	520.69
539.548	518.69
540.001	528.69
540.455	529.69
540.908	479.69
541.362	521.69
541.815	527.69
542.269	539.69
542.722	533.69
543.175	544.69
543.629	551.69
544.082	537.69
544.536	551.69
544.989	543.69
545.442	560.69
545.895	535.69
546.349	571.69
546.802	562.69
547.255	571.69
547.708	578.69
548.161	549.69
548.614	567.69
549.067	562.69
549.52	559.69
549.973	558.69
550.426	564.69
550.879	535.69
551.332	553.69
551.785	560.69
552.238	575.69
552.691	547.69
553.144	551.69
553.596	594.69
554.049	578.69
554.502	592.69
554.955	575.69
555.407	620.69
555.86	601.69
556.313	585.69
556.765	583.69
557.218	577.69
557.67	606.69
558.123	592.69
558.576	553.69
559.028	576.69
559.48	584.69
559.933	583.69
560.385	591.69
560.838	555.69
561.29	538.69
561.742	529.69
562.195	524.69
562.647	532.69
563.099	524.69
563.551	541.69
564.004	529.69
564.456	531.69
564.908	529.69
565.36	524.69
565.812	491.69
566.264	490.69
566.716	482.69
567.168	496.69
567.62	486.69
568.072	495.69
568.524	480.69
568.976	472.69
569.428	481.69
569.88	469.69
570.332	469.69
570.784	433.69
571.235	477.69
571.687	492.69
572.139	479.69
572.59	470.69
573.042	485.69
573.494	462.69
573.945	496.69
574.397	475.69
574.849	470.69
575.3	483.69
575.752	447.69
576.203	451.69
576.655	471.69
577.106	470.69
577.557	465.69
578.009	447.69
578.46	461.69
578.912	468.69
579.363	457.69
579.814	458.69
580.265	448.69
580.717	463.69
581.168	437.69
581.619	463.69
582.07	451.69
582.521	461.69
582.972	461.69
583.423	455.69
583.875	471.69
584.326	504.69
584.777	541.69
585.227	621.69
585.678	665.69
586.129	705.69
586.58	759.69
587.031	777.69
587.482	840.69
587.933	991.69
588.384	897.69
588.834	762.69
589.285	543.69
589.736	494.69
590.186	539.69
590.637	527.69
591.088	514.69
591.538	482.69
591.989	490.69
592.439	489.69
592.89	483.69
593.34	505.69
593.791	499.69
594.241	484.69
594.692	472.69
595.142	511.69
595.593	491.69
596.043	475.69
596.493	487.69
596.943	505.69
597.394	509.69
597.844	474.69
598.294	491.69
598.744	511.69
599.195	536.69
599.645	517.69
600.095	559.69
600.545	576.69
600.995	622.69
601.445	620.69
601.895	665.69
602.345	684.69
602.795	685.69
603.245	636.69
603.695	638.69
604.145	583.69
604.594	564.69
605.044	564.69
605.494	516.69
605.944	493.69
606.393	500.69
606.843	501.69
607.293	489.69
607.743	479.69
608.192	477.69
608.642	501.69
609.091	496.69
609.541	493.69
609.99	494.69
610.44	493.69
610.889	496.69
611.339	473.69
611.788	463.69
612.238	473.69
612.687	485.69
613.136	500.69
613.586	498.69
614.035	491.69
614.484	523.69
614.933	499.69
615.383	506.69
615.832	470.69
616.281	483.69
616.73	476.69
617.179	442.69
617.628	443.69
618.077	409.69
618.526	427.69
618.975	442.69
619.424	415.69
619.873	415.69
620.322	440.69
620.771	427.69
621.22	430.69
621.669	393.69
622.118	424.69
622.567	403.69
623.015	391.69
623.464	379.69
623.913	416.69
624.361	400.69
624.81	395.69
625.259	418.69
625.707	378.69
626.156	390.69
626.604	390.69
627.053	380.69
627.501	390.69
627.95	415.69
628.398	407.69
628.847	379.69
629.295	375.69
629.744	397.69
630.192	396.69
630.64	424.69
631.089	451.69
631.537	478.69
631.985	494.69
632.433	490.69
632.881	487.69
633.33	554.69
633.778	673.69
634.226	509.69
634.674	427.69
635.122	443.69
635.57	444.69
636.018	488.69
636.466	440.69
636.914	380.69
637.362	384.69
637.81	383.69
638.258	381.69
638.705	421.69
639.153	409.69
639.601	415.69
640.049	419.69
640.497	410.69
640.944	446.69
641.392	430.69
641.84	387.69
642.287	387.69
642.735	382.69
643.182	387.69
643.63	390.69
644.078	396.69
644.525	391.69
644.973	389.69
645.42	430.69
645.867	394.69
646.315	403.69
646.762	439.69
647.21	460.69
647.657	458.69
648.104	479.69
648.551	479.69
648.999	535.69
649.446	573.69
649.893	620.69
650.34	709.69
650.787	841.69
651.234	1062.69
651.682	1440.69
652.129	1965.69
652.576	2929.69
653.023	4001.69
653.47	5029.69
653.917	5631.69
654.363	5959.69
654.81	6311.69
655.257	6666.69
655.704	4920.69
656.151	2903.69
656.598	1791.69
657.044	1255.69
657.491	995.69
657.938	823.69
658.385	718.69
658.831	608.69
659.278	562.69
659.724	503.69
660.171	452.69
660.618	449.69
661.064	409.69
661.511	387.69
661.957	389.69
662.404	388.69
662.85	386.69
663.296	378.69
663.743	370.69
664.189	356.69
664.635	359.69
665.082	341.69
665.528	340.69
665.974	334.69
666.42	324.69
666.867	359.69
667.313	378.69
667.759	382.69
668.205	409.69
668.651	413.69
669.097	397.69
669.543	429.69
669.989	454.69
670.435	349.69
670.881	345.69
671.327	351.69
671.773	356.69
672.219	376.69
672.665	383.69
673.11	401.69
673.556	413.69
674.002	369.69
674.448	421.69
674.893	368.69
675.339	333.69
675.785	312.69
676.23	281.69
676.676	302.69
677.122	295.69
677.567	277.69
678.013	265.69
678.458	279.69
678.904	271.69
679.349	263.69
679.794	268.69
680.24	271.69
680.685	268.69
681.131	274.69
681.576	269.69
682.021	276.69
682.466	263.69
682.912	275.69
683.357	259.69
683.802	276.69
684.247	322.69
684.692	336.69
685.137	331.69
685.583	346.69
686.028	349.69
686.473	352.69
686.918	307.69
687.363	307.69
687.807	281.69
688.252	295.69
688.697	271.69
689.142	277.69
689.587	252.69
690.032	256.69
690.477	267.69
690.921	298.69
691.366	291.69
691.811	311.69
692.255	305.69
692.7	343.69
693.145	419.69
693.589	590.69
694.034	785.69
694.478	858.69
694.923	795.69
695.367	956.69
695.812	861.69
696.256	406.69
696.701	304.69
697.145	266.69
697.59	257.69
698.034	263.69
698.478	248.69
698.922	279.69
699.367	261.69
699.811	271.69
700.255	272.69
700.699	302.69
701.143	324.69
701.588	315.69
702.032	359.69
702.476	367.69
702.92	372.69
703.364	413.69
703.808	549.69
704.252	708.69
704.696	858.69
705.14	780.69
705.584	944.69
706.027	761.69
706.471	400.69
706.915	294.69
707.359	262.69
707.803	247.69
708.246	244.69
708.69	239.69
709.134	257.69
709.577	248.69
710.021	251.69
710.465	251.69
710.908	257.69
711.352	255.69
711.795	271.69
712.239	268.69
712.682	275.69
713.126	308.69
713.569	307.69
714.012	288.69
714.456	269.69
714.899	230.69
715.342	234.69
715.786	250.69
716.229	215.69
716.672	205.69
717.115	227.69
717.558	215.69
718.002	219.69
718.445	225.69
718.888	248.69
719.331	243.69
719.774	235.69
720.217	231.69
720.66	213.69
721.103	221.69
721.546	219.69
721.989	198.69
722.432	218.69
722.874	215.69
723.317	212.69
723.76	208.69
724.203	245.69
724.645	281.69
725.088	340.69
725.531	358.69
725.974	350.69
726.416	362.69
726.859	275.69
727.301	229.69
727.744	217.69
728.187	178.69
728.629	206.69
729.071	211.69
729.514	232.69
729.956	214.69
730.399	231.69
730.841	219.69
731.283	214.69
731.726	226.69
732.168	204.69
732.61	231.69
733.053	255.69
733.495	273.69
733.937	267.69
734.379	310.69
734.821	353.69
735.263	441.69
735.705	713.69
736.148	1159.69
736.59	1297.69
737.032	1248.69
737.474	1255.69
737.916	655.69
738.357	363.69
738.799	253.69
739.241	249.69
739.683	255.69
740.125	241.69
740.567	241.69
741.008	261.69
741.45	273.69
741.892	261.69
742.334	266.69
742.775	255.69
743.217	276.69
743.658	239.69
744.1	215.69
744.542	227.69
744.983	243.69
745.425	268.69
745.866	277.69
746.307	239.69
746.749	262.69
747.19	287.69
747.632	440.69
748.073	782.69
748.514	1202.69
748.956	1422.69
749.397	1906.69
749.838	1481.69
750.279	1251.69
750.72	955.69
751.162	471.69
751.603	270.69
752.044	221.69
752.485	221.69
752.926	197.69
753.367	185.69
753.808	190.69
754.249	170.69
754.69	181.69
755.131	181.69
755.572	189.69
756.013	177.69
756.453	178.69
756.894	180.69
