Data from 20170802-ORNL-NYSim-Air_HRD10391_10-38-02-656.txt Node
Date: Wed Aug 02 10:38:02 EDT 2017
User: Ender
Spectrometer: HR+D1039
Trigger mode: 0
Integration Time (sec): 1.100000E-3
Scans to average: 1
Electric dark correction enabled: true
Nonlinearity correction enabled: false
Boxcar width: 0
XAxis mode: Wavelengths
Number of Pixels in Spectrum: 2048
>>>>>Begin Spectral Data<<<<<
187.836	-9.31
188.309	-9.31
188.782	-9.31
189.255	-15.31
189.728	-9.31
190.201	4.69
190.674	3.69
191.147	-13.31
191.619	-5.31
192.092	-3.31
192.565	-11.31
193.038	9.69
193.511	-6.31
193.984	7.69
194.456	4.69
194.929	21.69
195.402	11.69
195.874	9.69
196.347	14.69
196.82	15.69
197.292	8.69
197.765	21.69
198.237	33.69
198.71	34.69
199.182	31.69
199.655	54.69
200.127	39.69
200.6	54.69
201.072	52.69
201.544	65.69
202.017	62.69
202.489	63.69
202.961	64.69
203.433	88.69
203.906	86.69
204.378	60.69
204.85	74.69
205.322	56.69
205.794	88.69
206.266	73.69
206.739	71.69
207.211	76.69
207.683	80.69
208.155	85.69
208.627	100.69
209.099	98.69
209.57	81.69
210.042	78.69
210.514	73.69
210.986	80.69
211.458	79.69
211.93	75.69
212.402	76.69
212.873	74.69
213.345	89.69
213.817	69.69
214.288	102.69
214.76	79.69
215.232	76.69
215.703	83.69
216.175	72.69
216.646	74.69
217.118	83.69
217.589	78.69
218.061	87.69
218.532	78.69
219.004	79.69
219.475	77.69
219.946	79.69
220.418	80.69
220.889	87.69
221.36	73.69
221.832	58.69
222.303	70.69
222.774	90.69
223.245	86.69
223.717	67.69
224.188	81.69
224.659	71.69
225.13	60.69
225.601	61.69
226.072	71.69
226.543	79.69
227.014	52.69
227.485	66.69
227.956	74.69
228.427	74.69
228.898	81.69
229.369	85.69
229.839	67.69
230.31	83.69
230.781	71.69
231.252	76.69
231.722	84.69
232.193	77.69
232.664	86.69
233.135	83.69
233.605	70.69
234.076	89.69
234.546	83.69
235.017	101.69
235.487	90.69
235.958	89.69
236.428	84.69
236.899	88.69
237.369	95.69
237.84	97.69
238.31	100.69
238.78	81.69
239.251	90.69
239.721	108.69
240.191	84.69
240.662	95.69
241.132	91.69
241.602	81.69
242.072	79.69
242.542	88.69
243.013	95.69
243.483	88.69
243.953	88.69
244.423	96.69
244.893	86.69
245.363	101.69
245.833	91.69
246.303	91.69
246.773	96.69
247.243	85.69
247.712	107.69
248.182	99.69
248.652	98.69
249.122	111.69
249.592	133.69
250.061	160.69
250.531	219.69
251.001	171.69
251.471	158.69
251.94	142.69
252.41	114.69
252.879	90.69
253.349	106.69
253.818	102.69
254.288	82.69
254.757	95.69
255.227	87.69
255.696	106.69
256.166	89.69
256.635	103.69
257.105	96.69
257.574	101.69
258.043	96.69
258.513	122.69
258.982	134.69
259.451	118.69
259.92	130.69
260.389	117.69
260.859	108.69
261.328	104.69
261.797	122.69
262.266	124.69
262.735	102.69
263.204	112.69
263.673	102.69
264.142	85.69
264.611	92.69
265.08	85.69
265.549	88.69
266.018	79.69
266.487	82.69
266.955	79.69
267.424	73.69
267.893	83.69
268.362	102.69
268.83	78.69
269.299	101.69
269.768	87.69
270.236	88.69
270.705	88.69
271.174	93.69
271.642	105.69
272.111	91.69
272.579	130.69
273.048	131.69
273.516	139.69
273.985	140.69
274.453	150.69
274.922	119.69
275.39	91.69
275.858	86.69
276.327	91.69
276.795	94.69
277.263	100.69
277.731	95.69
278.2	146.69
278.668	155.69
279.136	136.69
279.604	111.69
280.072	100.69
280.54	99.69
281.008	108.69
281.477	101.69
281.945	97.69
282.413	103.69
282.881	107.69
283.348	105.69
283.816	89.69
284.284	113.69
284.752	101.69
285.22	106.69
285.688	124.69
286.156	109.69
286.623	169.69
287.091	273.69
287.559	196.69
288.026	120.69
288.494	117.69
288.962	107.69
289.429	93.69
289.897	98.69
290.364	100.69
290.832	89.69
291.3	93.69
291.767	93.69
292.234	102.69
292.702	106.69
293.169	103.69
293.637	108.69
294.104	110.69
294.571	99.69
295.039	120.69
295.506	120.69
295.973	105.69
296.44	104.69
296.908	119.69
297.375	122.69
297.842	117.69
298.309	104.69
298.776	108.69
299.243	110.69
299.71	113.69
300.177	106.69
300.644	102.69
301.111	104.69
301.578	118.69
302.045	117.69
302.512	101.69
302.979	113.69
303.446	111.69
303.913	104.69
304.379	106.69
304.846	120.69
305.313	117.69
305.78	123.69
306.246	138.69
306.713	132.69
307.18	143.69
307.646	136.69
308.113	126.69
308.579	116.69
309.046	123.69
309.512	112.69
309.979	143.69
310.445	125.69
310.912	117.69
311.378	102.69
311.845	120.69
312.311	127.69
312.777	113.69
313.244	116.69
313.71	126.69
314.176	133.69
314.642	135.69
315.109	133.69
315.575	114.69
316.041	137.69
316.507	140.69
316.973	149.69
317.439	146.69
317.905	141.69
318.371	123.69
318.837	143.69
319.303	138.69
319.769	139.69
320.235	137.69
320.701	176.69
321.167	150.69
321.633	161.69
322.099	194.69
322.564	248.69
323.03	182.69
323.496	154.69
323.962	160.69
324.427	145.69
324.893	163.69
325.359	161.69
325.824	105.69
326.29	146.69
326.755	140.69
327.221	130.69
327.686	153.69
328.152	124.69
328.617	110.69
329.083	136.69
329.548	153.69
330.014	139.69
330.479	170.69
330.944	158.69
331.41	187.69
331.875	181.69
332.34	179.69
332.805	192.69
333.271	215.69
333.736	268.69
334.201	253.69
334.666	204.69
335.131	224.69
335.596	181.69
336.061	201.69
336.526	180.69
336.991	187.69
337.456	170.69
337.921	176.69
338.386	158.69
338.851	143.69
339.316	135.69
339.781	125.69
340.246	151.69
340.711	136.69
341.175	150.69
341.64	150.69
342.105	141.69
342.569	124.69
343.034	159.69
343.499	168.69
343.963	140.69
344.428	154.69
344.893	170.69
345.357	134.69
345.822	152.69
346.286	152.69
346.751	156.69
347.215	143.69
347.679	164.69
348.144	174.69
348.608	174.69
349.073	176.69
349.537	172.69
350.001	182.69
350.465	178.69
350.93	164.69
351.394	173.69
351.858	170.69
352.322	163.69
352.786	177.69
353.25	173.69
353.715	156.69
354.179	180.69
354.643	193.69
355.107	182.69
355.571	168.69
356.035	195.69
356.498	172.69
356.962	180.69
357.426	206.69
357.89	188.69
358.354	166.69
358.818	163.69
359.281	174.69
359.745	196.69
360.209	163.69
360.673	187.69
361.136	196.69
361.6	185.69
362.064	184.69
362.527	193.69
362.991	196.69
363.454	181.69
363.918	197.69
364.381	186.69
364.845	204.69
365.308	189.69
365.772	186.69
366.235	213.69
366.698	204.69
367.162	236.69
367.625	248.69
368.088	210.69
368.552	195.69
369.015	205.69
369.478	223.69
369.941	208.69
370.404	192.69
370.867	202.69
371.331	220.69
371.794	219.69
372.257	249.69
372.72	267.69
373.183	226.69
373.646	250.69
374.109	258.69
374.572	250.69
375.035	321.69
375.497	273.69
375.96	216.69
376.423	212.69
376.886	212.69
377.349	227.69
377.811	225.69
378.274	211.69
378.737	218.69
379.199	230.69
379.662	240.69
380.125	252.69
380.587	253.69
381.05	268.69
381.512	258.69
381.975	244.69
382.437	276.69
382.9	256.69
383.362	263.69
383.825	278.69
384.287	301.69
384.75	352.69
385.212	328.69
385.674	290.69
386.136	245.69
386.599	232.69
387.061	279.69
387.523	255.69
387.985	286.69
388.447	257.69
388.91	282.69
389.372	348.69
389.834	326.69
390.296	301.69
390.758	287.69
391.22	304.69
391.682	348.69
392.144	494.69
392.606	494.69
393.068	320.69
393.529	272.69
393.991	298.69
394.453	290.69
394.915	320.69
395.377	345.69
395.838	408.69
396.3	291.69
396.762	247.69
397.224	244.69
397.685	242.69
398.147	256.69
398.608	235.69
399.07	254.69
399.531	237.69
399.993	262.69
400.454	256.69
400.916	254.69
401.377	270.69
401.839	263.69
402.3	256.69
402.762	266.69
403.223	296.69
403.684	312.69
404.145	278.69
404.607	273.69
405.068	284.69
405.529	255.69
405.99	296.69
406.451	260.69
406.913	280.69
407.374	275.69
407.835	294.69
408.296	292.69
408.757	279.69
409.218	307.69
409.679	306.69
410.14	310.69
410.601	312.69
411.062	319.69
411.522	355.69
411.983	382.69
412.444	337.69
412.905	290.69
413.366	306.69
413.826	305.69
414.287	356.69
414.748	382.69
415.208	390.69
415.669	353.69
416.13	320.69
416.59	350.69
417.051	344.69
417.511	335.69
417.972	365.69
418.432	360.69
418.893	418.69
419.353	397.69
419.814	325.69
420.274	296.69
420.734	280.69
421.195	304.69
421.655	326.69
422.115	326.69
422.576	333.69
423.036	307.69
423.496	325.69
423.956	340.69
424.416	338.69
424.876	393.69
425.336	398.69
425.797	380.69
426.257	394.69
426.717	352.69
427.177	339.69
427.637	359.69
428.097	387.69
428.556	395.69
429.016	418.69
429.476	392.69
429.936	408.69
430.396	411.69
430.856	404.69
431.315	430.69
431.775	449.69
432.235	456.69
432.694	470.69
433.154	446.69
433.614	444.69
434.073	427.69
434.533	386.69
434.993	366.69
435.452	372.69
435.912	356.69
436.371	384.69
436.83	362.69
437.29	367.69
437.749	342.69
438.209	339.69
438.668	357.69
439.127	366.69
439.587	368.69
440.046	350.69
440.505	336.69
440.964	331.69
441.424	360.69
441.883	364.69
442.342	345.69
442.801	336.69
443.26	340.69
443.719	350.69
444.178	343.69
444.637	348.69
445.096	329.69
445.555	357.69
446.014	362.69
446.473	314.69
446.932	352.69
447.391	330.69
447.849	350.69
448.308	356.69
448.767	345.69
449.226	356.69
449.685	352.69
450.143	379.69
450.602	372.69
451.061	358.69
451.519	361.69
451.978	374.69
452.436	376.69
452.895	356.69
453.353	365.69
453.812	347.69
454.27	366.69
454.729	348.69
455.187	331.69
455.646	340.69
456.104	348.69
456.562	365.69
457.021	341.69
457.479	324.69
457.937	327.69
458.395	351.69
458.854	342.69
459.312	350.69
459.77	368.69
460.228	340.69
460.686	357.69
461.144	364.69
461.602	354.69
462.06	351.69
462.518	342.69
462.976	352.69
463.434	350.69
463.892	354.69
464.35	356.69
464.808	380.69
465.266	376.69
465.724	380.69
466.181	368.69
466.639	379.69
467.097	383.69
467.555	413.69
468.012	413.69
468.47	445.69
468.928	420.69
469.385	435.69
469.843	441.69
470.3	439.69
470.758	450.69
471.215	434.69
471.673	452.69
472.13	474.69
472.588	473.69
473.045	462.69
473.503	490.69
473.96	494.69
474.417	504.69
474.875	519.69
475.332	514.69
475.789	556.69
476.246	560.69
476.704	587.69
477.161	610.69
477.618	647.69
478.075	654.69
478.532	729.69
478.989	766.69
479.446	816.69
479.903	871.69
480.36	946.69
480.817	1030.69
481.274	1081.69
481.731	1218.69
482.188	1305.69
482.645	1374.69
483.102	1492.69
483.558	1574.69
484.015	1675.69
484.472	1671.69
484.929	1624.69
485.385	1604.69
485.842	1510.69
486.299	1429.69
486.755	1330.69
487.212	1193.69
487.668	1090.69
488.125	979.69
488.582	896.69
489.038	862.69
489.494	854.69
489.951	826.69
490.407	808.69
490.864	771.69
491.32	752.69
491.776	710.69
492.233	738.69
492.689	693.69
493.145	730.69
493.602	723.69
494.058	714.69
494.514	734.69
494.97	714.69
495.426	765.69
495.882	741.69
496.338	758.69
496.794	736.69
497.251	798.69
497.707	788.69
498.163	791.69
498.618	768.69
499.074	785.69
499.53	791.69
499.986	788.69
500.442	809.69
500.898	809.69
501.354	824.69
501.809	809.69
502.265	834.69
502.721	861.69
503.177	910.69
503.632	852.69
504.088	860.69
504.543	933.69
504.999	884.69
505.455	802.69
505.91	764.69
506.366	742.69
506.821	748.69
507.277	732.69
507.732	760.69
508.187	744.69
508.643	752.69
509.098	743.69
509.553	732.69
510.009	766.69
510.464	769.69
510.919	813.69
511.375	769.69
511.83	791.69
512.285	828.69
512.74	815.69
513.195	844.69
513.65	857.69
514.105	884.69
514.56	885.69
515.015	862.69
515.47	886.69
515.925	909.69
516.38	861.69
516.835	871.69
517.29	887.69
517.745	883.69
518.2	859.69
518.655	855.69
519.109	856.69
519.564	828.69
520.019	824.69
520.474	843.69
520.928	821.69
521.383	830.69
521.838	820.69
522.292	808.69
522.747	782.69
523.201	787.69
523.656	796.69
524.11	766.69
524.565	750.69
525.019	768.69
525.474	781.69
525.928	776.69
526.382	773.69
526.837	784.69
527.291	761.69
527.745	756.69
528.2	806.69
528.654	774.69
529.108	782.69
529.562	776.69
530.016	769.69
530.47	797.69
530.925	788.69
531.379	806.69
531.833	799.69
532.287	804.69
532.741	784.69
533.195	791.69
533.649	753.69
534.103	774.69
534.556	745.69
535.01	791.69
535.464	773.69
535.918	780.69
536.372	822.69
536.826	785.69
537.279	773.69
537.733	796.69
538.187	802.69
538.64	768.69
539.094	824.69
539.548	814.69
540.001	788.69
540.455	789.69
540.908	805.69
541.362	795.69
541.815	837.69
542.269	876.69
542.722	838.69
543.175	856.69
543.629	864.69
544.082	857.69
544.536	842.69
544.989	851.69
545.442	864.69
545.895	849.69
546.349	864.69
546.802	844.69
547.255	888.69
547.708	869.69
548.161	841.69
548.614	886.69
549.067	862.69
549.52	896.69
549.973	879.69
550.426	853.69
550.879	854.69
551.332	855.69
551.785	856.69
552.238	843.69
552.691	868.69
553.144	880.69
553.596	876.69
554.049	915.69
554.502	924.69
554.955	936.69
555.407	941.69
555.86	904.69
556.313	892.69
556.765	929.69
557.218	936.69
557.67	908.69
558.123	914.69
558.576	892.69
559.028	896.69
559.48	908.69
559.933	885.69
560.385	921.69
560.838	846.69
561.29	808.69
561.742	834.69
562.195	836.69
562.647	831.69
563.099	828.69
563.551	781.69
564.004	808.69
564.456	838.69
564.908	798.69
565.36	786.69
565.812	781.69
566.264	783.69
566.716	767.69
567.168	736.69
567.62	716.69
568.072	751.69
568.524	712.69
568.976	742.69
569.428	726.69
569.88	701.69
570.332	726.69
570.784	687.69
571.235	704.69
571.687	742.69
572.139	719.69
572.59	752.69
573.042	724.69
573.494	755.69
573.945	729.69
574.397	724.69
574.849	715.69
575.3	708.69
575.752	691.69
576.203	726.69
576.655	710.69
577.106	712.69
577.557	682.69
578.009	690.69
578.46	709.69
578.912	674.69
579.363	698.69
579.814	694.69
580.265	709.69
580.717	698.69
581.168	692.69
581.619	705.69
582.07	685.69
582.521	698.69
582.972	696.69
583.423	694.69
583.875	736.69
584.326	741.69
584.777	827.69
585.227	924.69
585.678	968.69
586.129	1037.69
586.58	1079.69
587.031	1138.69
587.482	1211.69
587.933	1502.69
588.384	1360.69
588.834	1072.69
589.285	848.69
589.736	805.69
590.186	807.69
590.637	794.69
591.088	761.69
591.538	760.69
591.989	749.69
592.439	751.69
592.89	770.69
593.34	745.69
593.791	719.69
594.241	748.69
594.692	734.69
595.142	750.69
595.593	752.69
596.043	744.69
596.493	746.69
596.943	767.69
597.394	756.69
597.844	734.69
598.294	746.69
598.744	791.69
599.195	782.69
599.645	848.69
600.095	856.69
600.545	908.69
600.995	938.69
601.445	971.69
601.895	993.69
602.345	1058.69
602.795	1044.69
603.245	1028.69
603.695	944.69
604.145	884.69
604.594	861.69
605.044	848.69
605.494	797.69
605.944	746.69
606.393	728.69
606.843	730.69
607.293	715.69
607.743	707.69
608.192	708.69
608.642	722.69
609.091	737.69
609.541	770.69
609.99	763.69
610.44	727.69
610.889	689.69
611.339	710.69
611.788	685.69
612.238	679.69
612.687	708.69
613.136	705.69
613.586	747.69
614.035	744.69
614.484	745.69
614.933	748.69
615.383	741.69
615.832	684.69
616.281	703.69
616.73	706.69
617.179	679.69
617.628	650.69
618.077	638.69
618.526	650.69
618.975	624.69
619.424	642.69
619.873	643.69
620.322	644.69
620.771	625.69
621.22	652.69
621.669	620.69
622.118	606.69
622.567	590.69
623.015	575.69
623.464	574.69
623.913	603.69
624.361	576.69
624.81	576.69
625.259	541.69
625.707	595.69
626.156	608.69
626.604	580.69
627.053	607.69
627.501	576.69
627.95	575.69
628.398	576.69
628.847	590.69
629.295	575.69
629.744	563.69
630.192	570.69
630.64	625.69
631.089	670.69
631.537	708.69
631.985	738.69
632.433	721.69
632.881	729.69
633.33	808.69
633.778	967.69
634.226	754.69
634.674	696.69
635.122	628.69
635.57	630.69
636.018	747.69
636.466	636.69
636.914	564.69
637.362	565.69
637.81	547.69
638.258	575.69
638.705	596.69
639.153	616.69
639.601	601.69
640.049	605.69
640.497	606.69
640.944	636.69
641.392	634.69
641.84	597.69
642.287	568.69
642.735	565.69
643.182	539.69
643.63	582.69
644.078	575.69
644.525	586.69
644.973	589.69
645.42	599.69
645.867	604.69
646.315	600.69
646.762	632.69
647.21	640.69
647.657	710.69
648.104	731.69
648.551	736.69
648.999	817.69
649.446	856.69
649.893	990.69
650.34	1112.69
650.787	1375.69
651.234	1719.69
651.682	2256.69
652.129	3202.69
652.576	4665.69
653.023	6553.69
653.47	7932.69
653.917	8902.69
654.363	9490.69
654.81	9912.69
655.257	10460.69
655.704	7756.69
656.151	4671.69
656.598	2940.69
657.044	2053.69
657.491	1575.69
657.938	1309.69
658.385	1081.69
658.831	944.69
659.278	837.69
659.724	768.69
660.171	700.69
660.618	658.69
661.064	604.69
661.511	603.69
661.957	566.69
662.404	590.69
662.85	572.69
663.296	534.69
663.743	556.69
664.189	528.69
664.635	538.69
665.082	544.69
665.528	519.69
665.974	511.69
666.42	506.69
666.867	489.69
667.313	497.69
667.759	551.69
668.205	568.69
668.651	558.69
669.097	556.69
669.543	576.69
669.989	585.69
670.435	472.69
670.881	484.69
671.327	494.69
671.773	495.69
672.219	511.69
672.665	580.69
673.11	619.69
673.556	602.69
674.002	576.69
674.448	635.69
674.893	565.69
675.339	474.69
675.785	455.69
676.23	433.69
676.676	410.69
677.122	388.69
677.567	386.69
678.013	375.69
678.458	367.69
678.904	383.69
679.349	382.69
679.794	360.69
680.24	408.69
680.685	363.69
681.131	347.69
681.576	365.69
682.021	358.69
682.466	386.69
682.912	356.69
683.357	372.69
683.802	408.69
684.247	457.69
684.692	465.69
685.137	476.69
685.583	508.69
686.028	507.69
686.473	532.69
686.918	452.69
687.363	431.69
687.807	411.69
688.252	384.69
688.697	387.69
689.142	377.69
689.587	370.69
690.032	356.69
690.477	394.69
690.921	389.69
691.366	397.69
691.811	406.69
692.255	420.69
692.7	486.69
693.145	634.69
693.589	887.69
694.034	1182.69
694.478	1280.69
694.923	1175.69
695.367	1464.69
695.812	1302.69
696.256	602.69
696.701	409.69
697.145	370.69
697.59	318.69
698.034	345.69
698.478	347.69
698.922	335.69
699.367	368.69
699.811	388.69
700.255	389.69
700.699	408.69
701.143	449.69
701.588	479.69
702.032	494.69
702.476	488.69
702.92	497.69
703.364	564.69
703.808	826.69
704.252	1122.69
704.696	1217.69
705.14	1165.69
705.584	1405.69
706.027	1122.69
706.471	602.69
706.915	426.69
707.359	352.69
707.803	334.69
708.246	351.69
708.69	338.69
709.134	328.69
709.577	343.69
710.021	348.69
710.465	342.69
710.908	355.69
711.352	365.69
711.795	350.69
712.239	380.69
712.682	400.69
713.126	392.69
713.569	412.69
714.012	404.69
714.456	332.69
714.899	339.69
715.342	323.69
715.786	316.69
716.229	282.69
716.672	295.69
717.115	290.69
717.558	288.69
718.002	303.69
718.445	305.69
718.888	308.69
719.331	322.69
719.774	332.69
720.217	314.69
720.66	317.69
721.103	298.69
721.546	288.69
721.989	295.69
722.432	269.69
722.874	280.69
723.317	284.69
723.76	273.69
724.203	338.69
724.645	427.69
725.088	516.69
725.531	474.69
725.974	512.69
726.416	538.69
726.859	373.69
727.301	325.69
727.744	290.69
728.187	281.69
728.629	272.69
729.071	301.69
729.514	294.69
729.956	297.69
730.399	330.69
730.841	296.69
731.283	314.69
731.726	298.69
732.168	312.69
732.61	323.69
733.053	331.69
733.495	353.69
733.937	376.69
734.379	408.69
734.821	489.69
735.263	646.69
735.705	1052.69
736.148	1682.69
736.59	1930.69
737.032	1875.69
737.474	1963.69
737.916	1026.69
738.357	513.69
738.799	362.69
739.241	350.69
739.683	356.69
740.125	318.69
740.567	326.69
741.008	330.69
741.45	346.69
741.892	367.69
742.334	378.69
742.775	365.69
743.217	348.69
743.658	326.69
744.1	310.69
744.542	328.69
744.983	360.69
745.425	386.69
745.866	375.69
746.307	336.69
746.749	341.69
747.19	391.69
747.632	626.69
748.073	1135.69
748.514	1856.69
748.956	2182.69
749.397	2908.69
749.838	2290.69
750.279	1947.69
750.72	1414.69
751.162	675.69
751.603	380.69
752.044	272.69
752.485	268.69
752.926	260.69
753.367	254.69
753.808	254.69
754.249	239.69
