Data from 20170802-ORNL-NYSim-Air_HRD10391_10-38-05-656.txt Node
Date: Wed Aug 02 10:38:05 EDT 2017
User: Ender
Spectrometer: HR+D1039
Trigger mode: 0
Integration Time (sec): 1.100000E-3
Scans to average: 1
Electric dark correction enabled: true
Nonlinearity correction enabled: false
Boxcar width: 0
XAxis mode: Wavelengths
Number of Pixels in Spectrum: 2048
>>>>>Begin Spectral Data<<<<<
187.836	-3
188.309	-3
188.782	-3
189.255	-8
189.728	-3
190.201	12
190.674	-5
191.147	-12
191.619	-5
192.092	-22
192.565	-13
193.038	6
193.511	-4
193.984	4
194.456	0
194.929	14
195.402	23
195.874	16
196.347	16
196.82	33
197.292	19
197.765	30
198.237	48
198.71	47
199.182	31
199.655	55
200.127	28
200.6	54
201.072	61
201.544	58
202.017	47
202.489	70
202.961	66
203.433	71
203.906	57
204.378	74
204.85	71
205.322	62
205.794	92
206.266	81
206.739	82
207.211	83
207.683	100
208.155	77
208.627	62
209.099	72
209.57	84
210.042	78
210.514	62
210.986	73
211.458	88
211.93	86
212.402	69
212.873	82
213.345	76
213.817	74
214.288	87
214.76	74
215.232	68
215.703	81
216.175	84
216.646	66
217.118	87
217.589	83
218.061	87
218.532	80
219.004	87
219.475	81
219.946	86
220.418	66
220.889	71
221.36	64
221.832	74
222.303	71
222.774	97
223.245	63
223.717	74
224.188	59
224.659	59
225.13	71
225.601	72
226.072	80
226.543	70
227.014	81
227.485	83
227.956	69
228.427	82
228.898	87
229.369	74
229.839	67
230.31	68
230.781	60
231.252	78
231.722	73
232.193	69
232.664	73
233.135	65
233.605	86
234.076	88
234.546	84
235.017	85
235.487	86
235.958	70
236.428	82
236.899	80
237.369	104
237.84	78
238.31	89
238.78	87
239.251	91
239.721	101
240.191	85
240.662	91
241.132	80
241.602	72
242.072	79
242.542	84
243.013	80
243.483	88
243.953	85
244.423	87
244.893	88
245.363	76
245.833	71
246.303	92
246.773	86
247.243	98
247.712	91
248.182	92
248.652	112
249.122	110
249.592	135
250.061	167
250.531	212
251.001	195
251.471	159
251.94	156
252.41	111
252.879	83
253.349	110
253.818	94
254.288	80
254.757	107
255.227	95
255.696	97
256.166	90
256.635	87
257.105	111
257.574	108
258.043	91
258.513	119
258.982	123
259.451	126
259.92	120
260.389	121
260.859	112
261.328	118
261.797	146
262.266	122
262.735	95
263.204	100
263.673	83
264.142	82
264.611	94
265.08	98
265.549	101
266.018	79
266.487	76
266.955	89
267.424	76
267.893	92
268.362	89
268.83	87
269.299	74
269.768	94
270.236	98
270.705	108
271.174	98
271.642	86
272.111	93
272.579	110
273.048	137
273.516	153
273.985	182
274.453	126
274.922	133
275.39	114
275.858	96
276.327	92
276.795	90
277.263	96
277.731	98
278.2	142
278.668	144
279.136	134
279.604	131
280.072	98
280.54	98
281.008	83
281.477	93
281.945	100
282.413	103
282.881	92
283.348	87
283.816	108
284.284	93
284.752	94
285.22	101
285.688	108
286.156	119
286.623	198
287.091	324
287.559	198
288.026	145
288.494	102
288.962	125
289.429	103
289.897	94
290.364	99
290.832	107
291.3	99
291.767	98
292.234	119
292.702	104
293.169	114
293.637	114
294.104	102
294.571	110
295.039	102
295.506	103
295.973	109
296.44	97
296.908	101
297.375	103
297.842	110
298.309	112
298.776	112
299.243	108
299.71	108
300.177	111
300.644	105
301.111	102
301.578	89
302.045	102
302.512	119
302.979	108
303.446	97
303.913	121
304.379	117
304.846	111
305.313	113
305.78	138
306.246	133
306.713	144
307.18	141
307.646	158
308.113	118
308.579	132
309.046	115
309.512	105
309.979	104
310.445	124
310.912	111
311.378	124
311.845	113
312.311	116
312.777	111
313.244	108
313.71	126
314.176	125
314.642	118
315.109	140
315.575	134
316.041	127
316.507	122
316.973	143
317.439	150
317.905	136
318.371	124
318.837	146
319.303	116
319.769	116
320.235	130
320.701	133
321.167	148
321.633	151
322.099	198
322.564	221
323.03	207
323.496	165
323.962	167
324.427	156
324.893	131
325.359	147
325.824	133
326.29	147
326.755	123
327.221	149
327.686	150
328.152	116
328.617	150
329.083	134
329.548	133
330.014	137
330.479	139
330.944	138
331.41	150
331.875	166
332.34	164
332.805	205
333.271	189
333.736	263
334.201	220
334.666	188
335.131	192
335.596	189
336.061	182
336.526	195
336.991	181
337.456	176
337.921	151
338.386	153
338.851	119
339.316	148
339.781	124
340.246	136
340.711	135
341.175	135
341.64	119
342.105	135
342.569	148
343.034	159
343.499	143
343.963	152
344.428	172
344.893	138
345.357	164
345.822	170
346.286	148
346.751	162
347.215	144
347.679	173
348.144	157
348.608	172
349.073	156
349.537	176
350.001	170
350.465	148
350.93	163
351.394	141
351.858	158
352.322	164
352.786	158
353.25	180
353.715	170
354.179	169
354.643	195
355.107	182
355.571	182
356.035	191
356.498	176
356.962	191
357.426	192
357.89	176
358.354	166
358.818	185
359.281	188
359.745	174
360.209	178
360.673	190
361.136	174
361.6	198
362.064	194
362.527	202
362.991	179
363.454	192
363.918	194
364.381	186
364.845	189
365.308	168
365.772	184
366.235	169
366.698	198
367.162	202
367.625	229
368.088	214
368.552	182
369.015	184
369.478	202
369.941	196
370.404	212
370.867	204
371.331	235
371.794	199
372.257	239
372.72	225
373.183	230
373.646	252
374.109	250
374.572	251
375.035	312
375.497	250
375.96	214
376.423	199
376.886	196
377.349	190
377.811	216
378.274	218
378.737	212
379.199	238
379.662	242
380.125	212
380.587	242
381.05	268
381.512	261
381.975	257
382.437	263
382.9	262
383.362	269
383.825	248
384.287	313
384.75	330
385.212	294
385.674	276
386.136	258
386.599	248
387.061	249
387.523	250
387.985	260
388.447	262
388.91	317
389.372	368
389.834	348
390.296	289
390.758	302
391.22	281
391.682	335
392.144	457
392.606	465
393.068	298
393.529	252
393.991	260
394.453	295
394.915	267
395.377	328
395.838	400
396.3	325
396.762	227
397.224	239
397.685	238
398.147	231
398.608	238
399.07	232
399.531	242
399.993	244
400.454	258
400.916	237
401.377	230
401.839	264
402.3	235
402.762	255
403.223	282
403.684	302
404.145	257
404.607	268
405.068	248
405.529	277
405.99	270
406.451	281
406.913	261
407.374	276
407.835	269
408.296	264
408.757	264
409.218	264
409.679	285
410.14	280
410.601	310
411.062	311
411.522	344
411.983	372
412.444	338
412.905	270
413.366	312
413.826	302
414.287	339
414.748	374
415.208	373
415.669	356
416.13	308
416.59	294
417.051	298
417.511	328
417.972	335
418.432	338
418.893	389
419.353	390
419.814	320
420.274	268
420.734	294
421.195	290
421.655	297
422.115	298
422.576	282
423.036	291
423.496	307
423.956	316
424.416	333
424.876	362
425.336	367
425.797	349
426.257	376
426.717	360
427.177	343
427.637	339
428.097	357
428.556	376
429.016	410
429.476	396
429.936	389
430.396	388
430.856	380
431.315	385
431.775	418
432.235	426
432.694	436
433.154	411
433.614	445
434.073	404
434.533	357
434.993	368
435.452	354
435.912	340
436.371	332
436.83	353
437.29	350
437.749	353
438.209	324
438.668	323
439.127	327
439.587	330
440.046	320
440.505	329
440.964	325
441.424	325
441.883	353
442.342	318
442.801	312
443.26	337
443.719	324
444.178	309
444.637	312
445.096	322
445.555	311
446.014	311
446.473	321
446.932	337
447.391	313
447.849	314
448.308	300
448.767	332
449.226	340
449.685	319
450.143	355
450.602	357
451.061	345
451.519	349
451.978	354
452.436	365
452.895	368
453.353	335
453.812	339
454.27	344
454.729	346
455.187	323
455.646	339
456.104	332
456.562	318
457.021	318
457.479	315
457.937	330
458.395	330
458.854	331
459.312	300
459.77	343
460.228	341
460.686	334
461.144	361
461.602	338
462.06	311
462.518	340
462.976	348
463.434	341
463.892	344
464.35	341
464.808	352
465.266	379
465.724	336
466.181	365
466.639	350
467.097	363
467.555	393
468.012	387
468.47	400
468.928	406
469.385	382
469.843	390
470.3	425
470.758	408
471.215	407
471.673	452
472.13	441
472.588	456
473.045	429
473.503	456
473.96	467
474.417	468
474.875	484
475.332	534
475.789	512
476.246	539
476.704	566
477.161	570
477.618	611
478.075	623
478.532	645
478.989	714
479.446	773
479.903	842
480.36	896
480.817	954
481.274	1075
481.731	1156
482.188	1263
482.645	1336
483.102	1412
483.558	1531
484.015	1598
484.472	1598
484.929	1589
485.385	1474
485.842	1450
486.299	1413
486.755	1273
487.212	1116
487.668	1010
488.125	941
488.582	852
489.038	804
489.494	794
489.951	772
490.407	730
490.864	732
491.32	688
491.776	705
492.233	688
492.689	700
493.145	672
493.602	656
494.058	696
494.514	698
494.97	700
495.426	707
495.882	742
496.338	712
496.794	710
497.251	760
497.707	732
498.163	754
498.618	748
499.074	741
499.53	755
499.986	777
500.442	781
500.898	805
501.354	796
501.809	832
502.265	824
502.721	870
503.177	857
503.632	847
504.088	808
504.543	898
504.999	859
505.455	757
505.91	693
506.366	702
506.821	721
507.277	687
507.732	708
508.187	692
508.643	708
509.098	713
509.553	707
510.009	698
510.464	735
510.919	724
511.375	737
511.83	780
512.285	765
512.74	751
513.195	812
513.65	835
514.105	850
514.56	826
515.015	846
515.47	895
515.925	826
516.38	846
516.835	845
517.29	839
517.745	823
518.2	816
518.655	822
519.109	823
519.564	805
520.019	812
520.474	792
520.928	766
521.383	770
521.838	794
522.292	768
522.747	769
523.201	759
523.656	756
524.11	760
524.565	757
525.019	740
525.474	743
525.928	756
526.382	727
526.837	727
527.291	732
527.745	723
528.2	718
528.654	734
529.108	724
529.562	742
530.016	745
530.47	716
530.925	771
531.379	733
531.833	750
532.287	751
532.741	725
533.195	778
533.649	765
534.103	734
534.556	716
535.01	726
535.464	713
535.918	754
536.372	756
536.826	747
537.279	706
537.733	695
538.187	736
538.64	746
539.094	767
539.548	755
540.001	774
540.455	772
540.908	763
541.362	758
541.815	777
542.269	810
542.722	795
543.175	784
543.629	818
544.082	792
544.536	836
544.989	820
545.442	809
545.895	823
546.349	817
546.802	824
547.255	828
547.708	837
548.161	845
548.614	858
549.067	854
549.52	854
549.973	812
550.426	822
550.879	830
551.332	814
551.785	823
552.238	839
552.691	828
553.144	824
553.596	864
554.049	844
554.502	884
554.955	905
555.407	920
555.86	890
556.313	880
556.765	914
557.218	860
557.67	865
558.123	882
558.576	832
559.028	856
559.48	852
559.933	882
560.385	864
560.838	834
561.29	804
561.742	784
562.195	814
562.647	782
563.099	749
563.551	780
564.004	808
564.456	819
564.908	788
565.36	743
565.812	758
566.264	740
566.716	743
567.168	724
567.62	716
568.072	729
568.524	720
568.976	687
569.428	681
569.88	700
570.332	708
570.784	702
571.235	702
571.687	707
572.139	714
572.59	710
573.042	698
573.494	704
573.945	691
574.397	689
574.849	709
575.3	693
575.752	710
576.203	695
576.655	696
577.106	692
577.557	688
578.009	674
578.46	683
578.912	660
579.363	679
579.814	647
580.265	666
580.717	644
581.168	668
581.619	680
582.07	696
582.521	666
582.972	691
583.423	664
583.875	737
584.326	748
584.777	858
585.227	965
585.678	1091
586.129	1209
586.58	1220
587.031	1304
587.482	1354
587.933	1810
588.384	1584
588.834	1231
589.285	840
589.736	768
590.186	813
590.637	759
591.088	744
591.538	724
591.989	736
592.439	723
592.89	747
593.34	705
593.791	710
594.241	728
594.692	760
595.142	744
595.593	720
596.043	746
596.493	735
596.943	766
597.394	724
597.844	713
598.294	713
598.744	770
599.195	766
599.645	802
600.095	824
600.545	887
600.995	869
601.445	943
601.895	987
602.345	1035
602.795	990
603.245	952
603.695	934
604.145	852
604.594	836
605.044	802
605.494	799
605.944	727
606.393	722
606.843	702
607.293	727
607.743	716
608.192	691
608.642	706
609.091	712
609.541	714
609.99	729
610.44	676
610.889	676
611.339	670
611.788	656
612.238	688
612.687	712
613.136	671
613.586	705
614.035	696
614.484	740
614.933	738
615.383	732
615.832	711
616.281	692
616.73	669
617.179	637
617.628	656
618.077	637
618.526	609
618.975	618
619.424	590
619.873	599
620.322	629
620.771	617
621.22	594
621.669	600
622.118	616
622.567	613
623.015	568
623.464	585
623.913	576
624.361	575
624.81	566
625.259	555
625.707	556
626.156	549
626.604	569
627.053	569
627.501	557
627.95	585
628.398	553
628.847	556
629.295	546
629.744	551
630.192	568
630.64	615
631.089	654
631.537	717
631.985	714
632.433	728
632.881	745
633.33	863
633.778	991
634.226	742
634.674	658
635.122	650
635.57	663
636.018	732
636.466	642
636.914	549
637.362	554
637.81	552
638.258	567
638.705	566
639.153	597
639.601	565
640.049	586
640.497	625
640.944	591
641.392	585
641.84	580
642.287	570
642.735	542
643.182	546
643.63	568
644.078	559
644.525	544
644.973	571
645.42	600
645.867	614
646.315	603
646.762	622
647.21	632
647.657	673
648.104	712
648.551	725
648.999	782
649.446	848
649.893	938
650.34	1096
650.787	1257
651.234	1660
651.682	2185
652.129	3131
652.576	4469
653.023	6405
653.47	7776
653.917	8660
654.363	9160
654.81	9739
655.257	10222
655.704	7616
656.151	4443
656.598	2803
657.044	1967
657.491	1530
657.938	1236
658.385	1022
658.831	922
659.278	811
659.724	732
660.171	698
660.618	626
661.064	585
661.511	560
661.957	575
662.404	570
662.85	540
663.296	551
663.743	508
664.189	497
664.635	502
665.082	510
665.528	528
665.974	470
666.42	505
666.867	485
667.313	532
667.759	571
668.205	618
668.651	630
669.097	611
669.543	652
669.989	652
670.435	490
670.881	457
671.327	471
671.773	480
672.219	508
672.665	547
673.11	562
673.556	578
674.002	579
674.448	589
674.893	541
675.339	460
675.785	420
676.23	408
676.676	408
677.122	411
677.567	374
678.013	372
678.458	362
678.904	368
679.349	389
679.794	367
680.24	355
680.685	355
681.131	361
681.576	358
682.021	368
682.466	352
682.912	333
683.357	376
683.802	385
684.247	434
684.692	455
685.137	459
685.583	485
686.028	500
686.473	488
686.918	442
687.363	392
687.807	406
688.252	397
688.697	372
689.142	352
689.587	368
690.032	343
690.477	376
690.921	360
691.366	402
691.811	413
692.255	414
692.7	482
693.145	568
693.589	856
694.034	1116
694.478	1240
694.923	1143
695.367	1337
695.812	1210
696.256	545
696.701	420
697.145	386
697.59	347
698.034	338
698.478	331
698.922	382
699.367	372
699.811	368
700.255	385
700.699	422
701.143	426
701.588	475
702.032	445
702.476	500
702.92	500
703.364	544
703.808	786
704.252	1019
704.696	1174
705.14	1091
705.584	1333
706.027	1101
706.471	553
706.915	408
707.359	357
707.803	346
708.246	334
708.69	331
709.134	348
709.577	324
710.021	326
710.465	324
710.908	321
711.352	333
711.795	358
712.239	386
712.682	372
713.126	412
713.569	448
714.012	418
714.456	342
714.899	350
715.342	312
715.786	305
716.229	276
716.672	284
717.115	297
717.558	283
718.002	298
718.445	299
718.888	304
719.331	321
719.774	324
720.217	308
720.66	320
721.103	278
721.546	284
721.989	254
722.432	247
722.874	265
723.317	296
723.76	271
724.203	315
724.645	382
725.088	463
725.531	481
725.974	446
726.416	509
726.859	344
727.301	305
727.744	269
728.187	267
728.629	273
729.071	280
729.514	289
729.956	280
730.399	288
730.841	296
731.283	292
731.726	297
732.168	288
732.61	283
733.053	318
733.495	348
733.937	347
734.379	407
734.821	456
735.263	614
735.705	981
736.148	1600
736.59	1869
737.032	1752
737.474	1944
737.916	913
738.357	511
738.799	346
739.241	339
739.683	329
740.125	324
740.567	344
741.008	334
741.45	342
741.892	358
742.334	380
742.775	354
743.217	331
743.658	323
744.1	297
744.542	342
744.983	324
745.425	340
745.866	360
746.307	338
746.749	329
747.19	373
747.632	608
748.073	1128
748.514	1703
748.956	2068
749.397	2757
749.838	2260
750.279	1869
750.72	1381
751.162	624
751.603	370
752.044	292
752.485	261
752.926	251
753.367	226
753.808	218
754.249	234
754.69	227
755.131	225
755.572	248
756.013	231
756.453	239
756.894	235
757.335	241
757.776	256
758.216	242
758.657	250
759.098	248
759.538	300
759.979	350
760.42	508
760.86	1080
761.301	2462
761.741	3622
762.182	3682
762.622	3415
763.063	1655
763.503	814
763.943	757
764.384	1319
764.824	1660
765.264	1662
765.705	988
766.145	500
766.585	366
767.025	396
767.465	593
767.906	1097
768.346	1167
768.786	1197
769.226	658
769.666	570
770.106	926
770.546	1519
770.986	1639
771.426	1597
771.866	889
772.306	407
772.745	272
773.185	243
773.625	237
774.065	238
774.505	324
774.944	512
775.384	840
775.824	948
776.263	970
776.703	650
777.142	351
777.582	258
778.021	265
778.461	265
778.9	259
779.34	187
779.779	188
780.219	180
780.658	178
781.097	181
781.537	182
781.976	176
782.415	192
782.855	184
783.294	160
783.733	171
784.172	160
784.611	172
785.05	176
785.489	177
785.928	170
786.367	187
786.806	185
787.245	178
787.684	200
788.123	180
788.562	170
789.001	188
789.44	166
789.879	182
790.317	192
790.756	192
791.195	194
791.634	215
792.072	297
792.511	588
792.95	1187
793.388	1479
793.827	1263
794.265	750
794.704	388
795.142	251
795.581	204
796.019	194
796.458	187
796.896	198
797.334	210
797.773	225
798.211	306
798.649	580
799.087	935
799.526	1385
799.964	1552
800.402	1318
800.84	754
801.278	426
801.716	265
802.154	216
802.592	185
803.03	188
803.468	198
803.906	215
804.344	198
804.782	191
805.22	176
805.658	196
806.096	185
806.533	199
806.971	238
807.409	298
807.847	441
808.284	952
808.722	1742
809.16	2469
809.597	3394
810.035	4310
810.472	3674
810.91	1974
811.347	982
811.785	477
812.222	318
812.66	233
813.097	210
813.535	172
813.972	180
814.409	160
814.846	166
815.284	158
815.721	156
816.158	156
816.595	181
817.032	210
817.47	224
817.907	196
818.344	182
818.781	178
819.218	183
819.655	222
820.092	250
820.529	253
820.966	254
821.403	192
821.839	176
822.276	176
822.713	166
823.15	182
823.587	199
824.023	261
824.46	449
824.897	829
825.333	912
825.77	531
826.206	324
826.643	213
827.08	198
827.516	160
827.953	157
828.389	150
828.825	132
829.262	149
829.698	115
830.135	120
830.571	125
831.007	138
831.443	131
831.88	127
832.316	136
832.752	142
833.188	137
833.624	137
834.06	144
834.497	159
834.933	142
835.369	112
835.805	144
836.241	143
836.677	154
837.112	169
837.548	186
837.984	215
838.42	326
838.856	689
839.292	1402
839.727	1504
840.163	1053
840.599	1192
841.034	1760
841.47	1375
841.906	776
842.341	471
842.777	348
843.212	374
843.648	323
844.083	212
844.519	170
844.954	159
845.39	151
845.825	143
846.261	138
846.696	119
847.131	116
847.566	118
848.002	128
848.437	126
848.872	116
849.307	148
849.742	184
850.177	320
850.613	586
851.048	622
851.483	394
851.918	276
852.353	160
852.788	155
853.223	136
853.657	108
854.092	110
854.527	104
854.962	130
855.397	122
855.832	102
856.266	113
856.701	121
857.136	131
857.57	116
858.005	123
858.44	148
858.874	112
859.309	113
859.743	135
860.178	114
860.612	123
861.047	122
861.481	140
861.915	135
862.35	118
862.784	131
863.218	132
863.653	127
864.087	128
864.521	116
864.955	156
865.39	203
865.824	210
866.258	180
866.692	246
867.126	222
867.56	182
867.994	130
868.428	123
868.862	120
869.296	126
869.73	120
870.164	120
870.598	122
871.031	118
871.465	113
871.899	112
872.333	94
872.766	92
873.2	109
873.634	96
874.067	117
874.501	101
874.935	109
875.368	93
875.802	111
876.235	82
876.669	100
877.102	92
877.535	92
877.969	110
878.402	96
878.836	113
879.269	110
879.702	103
880.135	89
