Data from 20170802-ORNL-NYSim-Air_HRD10391_10-37-55-649.txt Node
Date: Wed Aug 02 10:37:55 EDT 2017
User: Ender
Spectrometer: HR+D1039
Trigger mode: 0
Integration Time (sec): 1.100000E-3
Scans to average: 1
Electric dark correction enabled: true
Nonlinearity correction enabled: false
Boxcar width: 0
XAxis mode: Wavelengths
Number of Pixels in Spectrum: 2048
>>>>>Begin Spectral Data<<<<<
187.836	6.44
188.309	6.44
188.782	6.44
189.255	1.44
189.728	-5.56
190.201	-0.56
190.674	-11.56
191.147	-4.56
191.619	-11.56
192.092	0.44
192.565	-7.56
193.038	6.44
193.511	2.44
193.984	-10.56
194.456	5.44
194.929	-5.56
195.402	11.44
195.874	23.44
196.347	22.44
196.82	29.44
197.292	22.44
197.765	30.44
198.237	20.44
198.71	31.44
199.182	48.44
199.655	57.44
200.127	49.44
200.6	44.44
201.072	58.44
201.544	59.44
202.017	70.44
202.489	58.44
202.961	60.44
203.433	51.44
203.906	74.44
204.378	76.44
204.85	87.44
205.322	72.44
205.794	90.44
206.266	95.44
206.739	74.44
207.211	99.44
207.683	88.44
208.155	95.44
208.627	78.44
209.099	72.44
209.57	82.44
210.042	82.44
210.514	81.44
210.986	95.44
211.458	79.44
211.93	95.44
212.402	83.44
212.873	79.44
213.345	60.44
213.817	77.44
214.288	77.44
214.76	87.44
215.232	90.44
215.703	85.44
216.175	79.44
216.646	72.44
217.118	84.44
217.589	71.44
218.061	80.44
218.532	72.44
219.004	72.44
219.475	79.44
219.946	89.44
220.418	81.44
220.889	79.44
221.36	75.44
221.832	80.44
222.303	80.44
222.774	75.44
223.245	89.44
223.717	81.44
224.188	66.44
224.659	85.44
225.13	87.44
225.601	89.44
226.072	78.44
226.543	90.44
227.014	79.44
227.485	83.44
227.956	76.44
228.427	82.44
228.898	83.44
229.369	71.44
229.839	85.44
230.31	79.44
230.781	70.44
231.252	86.44
231.722	75.44
232.193	84.44
232.664	87.44
233.135	80.44
233.605	88.44
234.076	72.44
234.546	89.44
235.017	69.44
235.487	80.44
235.958	87.44
236.428	95.44
236.899	91.44
237.369	101.44
237.84	83.44
238.31	99.44
238.78	107.44
239.251	106.44
239.721	92.44
240.191	91.44
240.662	103.44
241.132	80.44
241.602	95.44
242.072	95.44
242.542	93.44
243.013	72.44
243.483	89.44
243.953	92.44
244.423	90.44
244.893	94.44
245.363	83.44
245.833	97.44
246.303	87.44
246.773	113.44
247.243	101.44
247.712	85.44
248.182	109.44
248.652	105.44
249.122	121.44
249.592	128.44
250.061	168.44
250.531	219.44
251.001	211.44
251.471	178.44
251.94	153.44
252.41	132.44
252.879	105.44
253.349	103.44
253.818	107.44
254.288	99.44
254.757	91.44
255.227	100.44
255.696	105.44
256.166	89.44
256.635	102.44
257.105	107.44
257.574	104.44
258.043	99.44
258.513	115.44
258.982	124.44
259.451	134.44
259.92	139.44
260.389	125.44
260.859	111.44
261.328	125.44
261.797	140.44
262.266	136.44
262.735	100.44
263.204	101.44
263.673	86.44
264.142	91.44
264.611	100.44
265.08	95.44
265.549	90.44
266.018	87.44
266.487	107.44
266.955	83.44
267.424	75.44
267.893	101.44
268.362	95.44
268.83	103.44
269.299	101.44
269.768	102.44
270.236	104.44
270.705	95.44
271.174	94.44
271.642	95.44
272.111	102.44
272.579	110.44
273.048	160.44
273.516	155.44
273.985	177.44
274.453	137.44
274.922	117.44
275.39	100.44
275.858	114.44
276.327	116.44
276.795	104.44
277.263	111.44
277.731	123.44
278.2	153.44
278.668	159.44
279.136	160.44
279.604	105.44
280.072	104.44
280.54	101.44
281.008	103.44
281.477	126.44
281.945	110.44
282.413	92.44
282.881	104.44
283.348	103.44
283.816	103.44
284.284	103.44
284.752	102.44
285.22	98.44
285.688	106.44
286.156	126.44
286.623	197.44
287.091	322.44
287.559	201.44
288.026	127.44
288.494	125.44
288.962	111.44
289.429	109.44
289.897	120.44
290.364	94.44
290.832	87.44
291.3	116.44
291.767	119.44
292.234	119.44
292.702	118.44
293.169	112.44
293.637	115.44
294.104	123.44
294.571	111.44
295.039	109.44
295.506	109.44
295.973	105.44
296.44	110.44
296.908	120.44
297.375	115.44
297.842	121.44
298.309	100.44
298.776	110.44
299.243	131.44
299.71	119.44
300.177	128.44
300.644	108.44
301.111	131.44
301.578	105.44
302.045	114.44
302.512	116.44
302.979	108.44
303.446	105.44
303.913	115.44
304.379	116.44
304.846	120.44
305.313	128.44
305.78	135.44
306.246	138.44
306.713	143.44
307.18	149.44
307.646	144.44
308.113	162.44
308.579	138.44
309.046	125.44
309.512	143.44
309.979	124.44
310.445	132.44
310.912	120.44
311.378	116.44
311.845	123.44
312.311	109.44
312.777	115.44
313.244	132.44
313.71	120.44
314.176	119.44
314.642	132.44
315.109	132.44
315.575	137.44
316.041	135.44
316.507	115.44
316.973	127.44
317.439	131.44
317.905	129.44
318.371	137.44
318.837	137.44
319.303	141.44
319.769	128.44
320.235	150.44
320.701	159.44
321.167	169.44
321.633	162.44
322.099	199.44
322.564	260.44
323.03	205.44
323.496	179.44
323.962	172.44
324.427	167.44
324.893	157.44
325.359	151.44
325.824	147.44
326.29	153.44
326.755	149.44
327.221	136.44
327.686	147.44
328.152	136.44
328.617	148.44
329.083	163.44
329.548	139.44
330.014	144.44
330.479	142.44
330.944	161.44
331.41	177.44
331.875	170.44
332.34	169.44
332.805	195.44
333.271	197.44
333.736	263.44
334.201	248.44
334.666	198.44
335.131	230.44
335.596	190.44
336.061	195.44
336.526	175.44
336.991	189.44
337.456	183.44
337.921	183.44
338.386	156.44
338.851	151.44
339.316	168.44
339.781	158.44
340.246	157.44
340.711	135.44
341.175	135.44
341.64	175.44
342.105	155.44
342.569	147.44
343.034	145.44
343.499	171.44
343.963	153.44
344.428	154.44
344.893	172.44
345.357	152.44
345.822	150.44
346.286	144.44
346.751	171.44
347.215	159.44
347.679	173.44
348.144	161.44
348.608	179.44
349.073	194.44
349.537	189.44
350.001	169.44
350.465	190.44
350.93	182.44
351.394	170.44
351.858	182.44
352.322	180.44
352.786	164.44
353.25	166.44
353.715	178.44
354.179	177.44
354.643	192.44
355.107	181.44
355.571	201.44
356.035	181.44
356.498	186.44
356.962	201.44
357.426	213.44
357.89	187.44
358.354	185.44
358.818	180.44
359.281	176.44
359.745	188.44
360.209	181.44
360.673	189.44
361.136	214.44
361.6	185.44
362.064	183.44
362.527	166.44
362.991	213.44
363.454	200.44
363.918	196.44
364.381	199.44
364.845	208.44
365.308	203.44
365.772	179.44
366.235	181.44
366.698	212.44
367.162	243.44
367.625	257.44
368.088	211.44
368.552	208.44
369.015	197.44
369.478	189.44
369.941	213.44
370.404	216.44
370.867	245.44
371.331	235.44
371.794	232.44
372.257	260.44
372.72	251.44
373.183	265.44
373.646	265.44
374.109	265.44
374.572	266.44
375.035	306.44
375.497	273.44
375.96	218.44
376.423	223.44
376.886	208.44
377.349	208.44
377.811	214.44
378.274	218.44
378.737	244.44
379.199	210.44
379.662	241.44
380.125	244.44
380.587	270.44
381.05	277.44
381.512	266.44
381.975	284.44
382.437	283.44
382.9	282.44
383.362	271.44
383.825	287.44
384.287	321.44
384.75	328.44
385.212	323.44
385.674	291.44
386.136	249.44
386.599	261.44
387.061	265.44
387.523	281.44
387.985	273.44
388.447	290.44
388.91	320.44
389.372	374.44
389.834	364.44
390.296	306.44
390.758	295.44
391.22	323.44
391.682	344.44
392.144	509.44
392.606	497.44
393.068	309.44
393.529	300.44
393.991	302.44
394.453	288.44
394.915	325.44
395.377	351.44
395.838	410.44
396.3	320.44
396.762	286.44
397.224	270.44
397.685	255.44
398.147	266.44
398.608	271.44
399.07	264.44
399.531	268.44
399.993	258.44
400.454	273.44
400.916	257.44
401.377	268.44
401.839	257.44
402.3	280.44
402.762	271.44
403.223	294.44
403.684	306.44
404.145	287.44
404.607	262.44
405.068	275.44
405.529	282.44
405.99	317.44
406.451	318.44
406.913	295.44
407.374	285.44
407.835	271.44
408.296	292.44
408.757	299.44
409.218	312.44
409.679	300.44
410.14	324.44
410.601	325.44
411.062	330.44
411.522	328.44
411.983	388.44
412.444	348.44
412.905	337.44
413.366	310.44
413.826	347.44
414.287	387.44
414.748	404.44
415.208	421.44
415.669	380.44
416.13	327.44
416.59	324.44
417.051	334.44
417.511	353.44
417.972	391.44
418.432	365.44
418.893	431.44
419.353	415.44
419.814	331.44
420.274	307.44
420.734	324.44
421.195	340.44
421.655	349.44
422.115	323.44
422.576	309.44
423.036	334.44
423.496	315.44
423.956	348.44
424.416	350.44
424.876	398.44
425.336	397.44
425.797	398.44
426.257	388.44
426.717	384.44
427.177	376.44
427.637	366.44
428.097	362.44
428.556	371.44
429.016	412.44
429.476	441.44
429.936	423.44
430.396	441.44
430.856	446.44
431.315	453.44
431.775	466.44
432.235	469.44
432.694	499.44
433.154	446.44
433.614	442.44
434.073	448.44
434.533	397.44
434.993	377.44
435.452	394.44
435.912	382.44
436.371	359.44
436.83	394.44
437.29	367.44
437.749	383.44
438.209	354.44
438.668	359.44
439.127	385.44
439.587	356.44
440.046	339.44
440.505	361.44
440.964	361.44
441.424	357.44
441.883	387.44
442.342	355.44
442.801	356.44
443.26	345.44
443.719	340.44
444.178	357.44
444.637	319.44
445.096	353.44
445.555	329.44
446.014	343.44
446.473	344.44
446.932	355.44
447.391	360.44
447.849	355.44
448.308	350.44
448.767	370.44
449.226	367.44
449.685	355.44
450.143	391.44
450.602	381.44
451.061	363.44
451.519	382.44
451.978	381.44
452.436	387.44
452.895	372.44
453.353	384.44
453.812	382.44
454.27	360.44
454.729	346.44
455.187	362.44
455.646	353.44
456.104	357.44
456.562	343.44
457.021	341.44
457.479	352.44
457.937	356.44
458.395	380.44
458.854	347.44
459.312	357.44
459.77	357.44
460.228	360.44
460.686	359.44
461.144	377.44
461.602	332.44
462.06	357.44
462.518	369.44
462.976	376.44
463.434	376.44
463.892	386.44
464.35	381.44
464.808	403.44
465.266	409.44
465.724	387.44
466.181	400.44
466.639	400.44
467.097	417.44
467.555	431.44
468.012	423.44
468.47	420.44
468.928	421.44
469.385	443.44
469.843	447.44
470.3	449.44
470.758	454.44
471.215	461.44
471.673	511.44
472.13	465.44
472.588	507.44
473.045	499.44
473.503	508.44
473.96	534.44
474.417	541.44
474.875	543.44
475.332	564.44
475.789	589.44
476.246	586.44
476.704	625.44
477.161	623.44
477.618	615.44
478.075	676.44
478.532	727.44
478.989	753.44
479.446	840.44
479.903	895.44
480.36	943.44
480.817	1024.44
481.274	1103.44
481.731	1225.44
482.188	1346.44
482.645	1405.44
483.102	1498.44
483.558	1600.44
484.015	1735.44
484.472	1667.44
484.929	1686.44
485.385	1622.44
485.842	1519.44
486.299	1473.44
486.755	1328.44
487.212	1199.44
487.668	1063.44
488.125	1010.44
488.582	909.44
489.038	874.44
489.494	850.44
489.951	791.44
490.407	807.44
490.864	813.44
491.32	771.44
491.776	748.44
492.233	768.44
492.689	756.44
493.145	754.44
493.602	731.44
494.058	779.44
494.514	735.44
494.97	753.44
495.426	763.44
495.882	774.44
496.338	789.44
496.794	812.44
497.251	837.44
497.707	835.44
498.163	817.44
498.618	824.44
499.074	826.44
499.53	811.44
499.986	847.44
500.442	847.44
500.898	868.44
501.354	845.44
501.809	857.44
502.265	852.44
502.721	908.44
503.177	903.44
503.632	906.44
504.088	876.44
504.543	935.44
504.999	928.44
505.455	818.44
505.91	798.44
506.366	786.44
506.821	750.44
507.277	777.44
507.732	756.44
508.187	794.44
508.643	775.44
509.098	775.44
509.553	783.44
510.009	796.44
510.464	827.44
510.919	801.44
511.375	823.44
511.83	839.44
512.285	867.44
512.74	859.44
513.195	861.44
513.65	891.44
514.105	891.44
514.56	936.44
515.015	926.44
515.47	933.44
515.925	951.44
516.38	913.44
516.835	929.44
517.29	914.44
517.745	918.44
518.2	903.44
518.655	897.44
519.109	853.44
519.564	877.44
520.019	867.44
520.474	860.44
520.928	850.44
521.383	852.44
521.838	872.44
522.292	848.44
522.747	836.44
523.201	826.44
523.656	849.44
524.11	813.44
524.565	805.44
525.019	824.44
525.474	821.44
525.928	820.44
526.382	821.44
526.837	809.44
527.291	808.44
527.745	788.44
528.2	809.44
528.654	803.44
529.108	813.44
529.562	782.44
530.016	796.44
530.47	824.44
530.925	787.44
531.379	814.44
531.833	854.44
532.287	806.44
532.741	807.44
533.195	831.44
533.649	842.44
534.103	823.44
534.556	779.44
535.01	799.44
535.464	825.44
535.918	823.44
536.372	840.44
536.826	832.44
537.279	801.44
537.733	790.44
538.187	819.44
538.64	855.44
539.094	813.44
539.548	848.44
540.001	831.44
540.455	825.44
540.908	837.44
541.362	842.44
541.815	877.44
542.269	887.44
542.722	853.44
543.175	857.44
543.629	889.44
544.082	899.44
544.536	901.44
544.989	870.44
545.442	881.44
545.895	916.44
546.349	919.44
546.802	910.44
547.255	901.44
547.708	925.44
548.161	951.44
548.614	950.44
549.067	921.44
549.52	942.44
549.973	914.44
550.426	912.44
550.879	899.44
551.332	893.44
551.785	897.44
552.238	913.44
552.691	878.44
553.144	901.44
553.596	908.44
554.049	965.44
554.502	963.44
554.955	975.44
555.407	1003.44
555.86	985.44
556.313	974.44
556.765	966.44
557.218	973.44
557.67	970.44
558.123	959.44
558.576	928.44
559.028	924.44
559.48	939.44
559.933	930.44
560.385	917.44
560.838	907.44
561.29	918.44
561.742	903.44
562.195	862.44
562.647	849.44
563.099	863.44
563.551	834.44
564.004	870.44
564.456	872.44
564.908	848.44
565.36	831.44
565.812	823.44
566.264	807.44
566.716	795.44
567.168	768.44
567.62	807.44
568.072	786.44
568.524	801.44
568.976	790.44
569.428	769.44
569.88	772.44
570.332	757.44
570.784	804.44
571.235	741.44
571.687	759.44
572.139	755.44
572.59	788.44
573.042	778.44
573.494	801.44
573.945	737.44
574.397	724.44
574.849	747.44
575.3	720.44
575.752	751.44
576.203	739.44
576.655	732.44
577.106	747.44
577.557	745.44
578.009	746.44
578.46	742.44
578.912	746.44
579.363	716.44
579.814	751.44
580.265	751.44
580.717	754.44
581.168	714.44
581.619	751.44
582.07	737.44
582.521	717.44
582.972	733.44
583.423	765.44
583.875	765.44
584.326	801.44
584.777	891.44
585.227	1049.44
585.678	1153.44
586.129	1195.44
586.58	1289.44
587.031	1319.44
587.482	1373.44
587.933	1751.44
588.384	1600.44
588.834	1225.44
589.285	899.44
589.736	825.44
590.186	839.44
590.637	842.44
591.088	833.44
591.538	809.44
591.989	809.44
592.439	790.44
592.89	814.44
593.34	767.44
593.791	760.44
594.241	763.44
594.692	813.44
595.142	792.44
595.593	750.44
596.043	753.44
596.493	799.44
596.943	771.44
597.394	776.44
597.844	761.44
598.294	785.44
598.744	816.44
599.195	827.44
599.645	867.44
600.095	915.44
600.545	932.44
600.995	1011.44
601.445	1026.44
601.895	1080.44
602.345	1111.44
602.795	1109.44
603.245	1062.44
603.695	1031.44
604.145	945.44
604.594	933.44
605.044	877.44
605.494	818.44
605.944	787.44
606.393	750.44
606.843	733.44
607.293	765.44
607.743	773.44
608.192	762.44
608.642	771.44
609.091	804.44
609.541	775.44
609.99	790.44
610.44	739.44
610.889	744.44
611.339	754.44
611.788	752.44
612.238	753.44
612.687	752.44
613.136	745.44
613.586	754.44
614.035	776.44
614.484	768.44
614.933	755.44
615.383	759.44
615.832	717.44
616.281	727.44
616.73	716.44
617.179	703.44
617.628	712.44
618.077	701.44
618.526	659.44
618.975	639.44
619.424	665.44
619.873	667.44
620.322	655.44
620.771	651.44
621.22	645.44
621.669	647.44
622.118	615.44
622.567	631.44
623.015	632.44
623.464	611.44
623.913	595.44
624.361	623.44
624.81	589.44
625.259	608.44
625.707	625.44
626.156	617.44
626.604	601.44
627.053	592.44
627.501	593.44
627.95	617.44
628.398	635.44
628.847	589.44
629.295	629.44
629.744	616.44
630.192	603.44
630.64	677.44
631.089	709.44
631.537	742.44
631.985	743.44
632.433	786.44
632.881	775.44
633.33	839.44
633.778	980.44
634.226	720.44
634.674	681.44
635.122	696.44
635.57	667.44
636.018	769.44
636.466	705.44
636.914	620.44
637.362	584.44
637.81	611.44
638.258	612.44
638.705	613.44
639.153	632.44
639.601	637.44
640.049	668.44
640.497	657.44
640.944	665.44
641.392	659.44
641.84	637.44
642.287	616.44
642.735	624.44
643.182	600.44
643.63	603.44
644.078	619.44
644.525	610.44
644.973	615.44
645.42	612.44
645.867	649.44
646.315	649.44
646.762	664.44
647.21	663.44
647.657	704.44
648.104	750.44
648.551	768.44
648.999	823.44
649.446	870.44
649.893	975.44
650.34	1095.44
650.787	1347.44
651.234	1666.44
651.682	2241.44
652.129	3155.44
652.576	4557.44
653.023	6393.44
653.47	7833.44
653.917	8743.44
654.363	9336.44
654.81	9849.44
655.257	10361.44
655.704	7676.44
656.151	4507.44
656.598	2899.44
657.044	2023.44
657.491	1614.44
657.938	1267.44
658.385	1077.44
658.831	978.44
659.278	898.44
659.724	805.44
660.171	722.44
660.618	661.44
661.064	624.44
661.511	585.44
661.957	609.44
662.404	574.44
662.85	554.44
663.296	603.44
663.743	531.44
664.189	550.44
664.635	540.44
665.082	559.44
665.528	531.44
665.974	551.44
666.42	519.44
666.867	536.44
667.313	548.44
667.759	593.44
668.205	605.44
668.651	619.44
669.097	605.44
669.543	635.44
669.989	637.44
670.435	505.44
670.881	505.44
671.327	495.44
671.773	513.44
672.219	569.44
672.665	602.44
673.11	621.44
673.556	611.44
674.002	613.44
674.448	659.44
674.893	589.44
675.339	501.44
675.785	451.44
676.23	448.44
676.676	426.44
677.122	415.44
677.567	384.44
678.013	419.44
678.458	392.44
678.904	384.44
679.349	409.44
679.794	409.44
680.24	375.44
680.685	393.44
681.131	387.44
681.576	400.44
682.021	392.44
682.466	391.44
682.912	437.44
683.357	409.44
683.802	428.44
684.247	431.44
684.692	488.44
685.137	511.44
685.583	520.44
686.028	550.44
686.473	542.44
686.918	474.44
687.363	427.44
687.807	431.44
688.252	391.44
688.697	376.44
689.142	373.44
689.587	389.44
690.032	381.44
690.477	398.44
690.921	400.44
691.366	437.44
691.811	435.44
692.255	449.44
692.7	499.44
693.145	623.44
693.589	925.44
694.034	1235.44
694.478	1351.44
694.923	1262.44
695.367	1523.44
695.812	1375.44
696.256	588.44
696.701	435.44
697.145	397.44
697.59	371.44
698.034	363.44
698.478	376.44
698.922	360.44
699.367	365.44
699.811	401.44
700.255	417.44
700.699	423.44
701.143	473.44
701.588	500.44
702.032	495.44
702.476	507.44
702.92	510.44
703.364	617.44
703.808	846.44
704.252	1153.44
704.696	1295.44
705.14	1216.44
705.584	1475.44
706.027	1224.44
706.471	614.44
706.915	471.44
707.359	378.44
707.803	362.44
708.246	365.44
708.69	369.44
709.134	352.44
709.577	353.44
710.021	356.44
710.465	348.44
710.908	338.44
711.352	363.44
711.795	388.44
712.239	405.44
712.682	423.44
713.126	402.44
713.569	470.44
714.012	431.44
714.456	341.44
714.899	327.44
715.342	337.44
715.786	304.44
716.229	305.44
716.672	287.44
717.115	289.44
717.558	300.44
718.002	307.44
718.445	320.44
718.888	335.44
719.331	330.44
719.774	337.44
720.217	360.44
720.66	342.44
721.103	320.44
721.546	307.44
721.989	298.44
722.432	285.44
722.874	272.44
723.317	309.44
723.76	335.44
724.203	332.44
724.645	409.44
725.088	494.44
725.531	514.44
725.974	527.44
726.416	563.44
726.859	363.44
727.301	304.44
727.744	279.44
728.187	291.44
728.629	286.44
729.071	303.44
729.514	324.44
729.956	311.44
730.399	317.44
730.841	316.44
731.283	336.44
731.726	316.44
732.168	298.44
732.61	314.44
733.053	322.44
733.495	346.44
733.937	394.44
734.379	454.44
734.821	496.44
735.263	675.44
735.705	1136.44
736.148	1819.44
736.59	2030.44
737.032	1949.44
737.474	2081.44
737.916	1027.44
738.357	531.44
738.799	393.44
739.241	327.44
739.683	333.44
740.125	360.44
740.567	359.44
741.008	373.44
741.45	359.44
741.892	360.44
742.334	380.44
742.775	414.44
743.217	390.44
743.658	369.44
744.1	335.44
744.542	361.44
744.983	381.44
745.425	356.44
745.866	400.44
746.307	367.44
746.749	368.44
747.19	426.44
747.632	684.44
748.073	1214.44
748.514	1845.44
748.956	2312.44
749.397	2979.44
749.838	2463.44
750.279	2027.44
750.72	1545.44
751.162	697.44
751.603	375.44
752.044	305.44
752.485	289.44
752.926	272.44
753.367	265.44
