Data from 20170802-ORNL-NYSim-Air_HRD10391_10-38-21-660.txt Node
Date: Wed Aug 02 10:38:21 EDT 2017
User: Ender
Spectrometer: HR+D1039
Trigger mode: 0
Integration Time (sec): 1.100000E-3
Scans to average: 1
Electric dark correction enabled: true
Nonlinearity correction enabled: false
Boxcar width: 0
XAxis mode: Wavelengths
Number of Pixels in Spectrum: 2048
>>>>>Begin Spectral Data<<<<<
187.836	1.38
188.309	1.38
188.782	1.38
189.255	-6.62
189.728	-8.62
190.201	-11.62
190.674	-9.62
191.147	-0.62
191.619	2.38
192.092	-21.62
192.565	0.38
193.038	10.38
193.511	7.38
193.984	-5.62
194.456	-5.62
194.929	9.38
195.402	14.38
195.874	24.38
196.347	6.38
196.82	10.38
197.292	20.38
197.765	41.38
198.237	36.38
198.71	42.38
199.182	50.38
199.655	47.38
200.127	41.38
200.6	54.38
201.072	59.38
201.544	55.38
202.017	58.38
202.489	63.38
202.961	79.38
203.433	71.38
203.906	84.38
204.378	64.38
204.85	72.38
205.322	76.38
205.794	83.38
206.266	74.38
206.739	89.38
207.211	76.38
207.683	77.38
208.155	79.38
208.627	77.38
209.099	92.38
209.57	92.38
210.042	66.38
210.514	92.38
210.986	79.38
211.458	82.38
211.93	77.38
212.402	104.38
212.873	81.38
213.345	68.38
213.817	62.38
214.288	87.38
214.76	80.38
215.232	80.38
215.703	69.38
216.175	71.38
216.646	78.38
217.118	95.38
217.589	73.38
218.061	66.38
218.532	59.38
219.004	54.38
219.475	67.38
219.946	73.38
220.418	85.38
220.889	78.38
221.36	72.38
221.832	76.38
222.303	67.38
222.774	80.38
223.245	72.38
223.717	57.38
224.188	78.38
224.659	69.38
225.13	72.38
225.601	94.38
226.072	72.38
226.543	76.38
227.014	78.38
227.485	75.38
227.956	67.38
228.427	58.38
228.898	75.38
229.369	69.38
229.839	95.38
230.31	75.38
230.781	91.38
231.252	88.38
231.722	90.38
232.193	71.38
232.664	81.38
233.135	80.38
233.605	83.38
234.076	82.38
234.546	64.38
235.017	77.38
235.487	90.38
235.958	51.38
236.428	56.38
236.899	85.38
237.369	97.38
237.84	83.38
238.31	106.38
238.78	78.38
239.251	89.38
239.721	103.38
240.191	96.38
240.662	93.38
241.132	69.38
241.602	76.38
242.072	84.38
242.542	76.38
243.013	86.38
243.483	99.38
243.953	88.38
244.423	81.38
244.893	101.38
245.363	94.38
245.833	90.38
246.303	95.38
246.773	81.38
247.243	103.38
247.712	90.38
248.182	94.38
248.652	92.38
249.122	99.38
249.592	128.38
250.061	135.38
250.531	177.38
251.001	158.38
251.471	140.38
251.94	122.38
252.41	92.38
252.879	101.38
253.349	103.38
253.818	90.38
254.288	95.38
254.757	82.38
255.227	72.38
255.696	92.38
256.166	90.38
256.635	86.38
257.105	85.38
257.574	111.38
258.043	100.38
258.513	110.38
258.982	118.38
259.451	102.38
259.92	113.38
260.389	92.38
260.859	103.38
261.328	98.38
261.797	111.38
262.266	110.38
262.735	94.38
263.204	87.38
263.673	81.38
264.142	94.38
264.611	72.38
265.08	66.38
265.549	90.38
266.018	93.38
266.487	85.38
266.955	87.38
267.424	78.38
267.893	82.38
268.362	92.38
268.83	76.38
269.299	89.38
269.768	86.38
270.236	72.38
270.705	97.38
271.174	88.38
271.642	93.38
272.111	101.38
272.579	101.38
273.048	131.38
273.516	137.38
273.985	136.38
274.453	129.38
274.922	102.38
275.39	107.38
275.858	96.38
276.327	110.38
276.795	88.38
277.263	90.38
277.731	97.38
278.2	108.38
278.668	134.38
279.136	104.38
279.604	116.38
280.072	94.38
280.54	100.38
281.008	97.38
281.477	105.38
281.945	90.38
282.413	96.38
282.881	100.38
283.348	71.38
283.816	100.38
284.284	91.38
284.752	102.38
285.22	106.38
285.688	102.38
286.156	102.38
286.623	159.38
287.091	249.38
287.559	159.38
288.026	121.38
288.494	87.38
288.962	98.38
289.429	107.38
289.897	105.38
290.364	95.38
290.832	96.38
291.3	99.38
291.767	90.38
292.234	108.38
292.702	90.38
293.169	92.38
293.637	106.38
294.104	88.38
294.571	92.38
295.039	102.38
295.506	108.38
295.973	107.38
296.44	112.38
296.908	82.38
297.375	106.38
297.842	107.38
298.309	98.38
298.776	95.38
299.243	98.38
299.71	91.38
300.177	96.38
300.644	102.38
301.111	123.38
301.578	98.38
302.045	104.38
302.512	120.38
302.979	112.38
303.446	114.38
303.913	120.38
304.379	112.38
304.846	98.38
305.313	98.38
305.78	116.38
306.246	144.38
306.713	127.38
307.18	132.38
307.646	108.38
308.113	134.38
308.579	124.38
309.046	136.38
309.512	113.38
309.979	118.38
310.445	112.38
310.912	100.38
311.378	108.38
311.845	106.38
312.311	122.38
312.777	113.38
313.244	116.38
313.71	118.38
314.176	113.38
314.642	123.38
315.109	124.38
315.575	151.38
316.041	134.38
316.507	116.38
316.973	134.38
317.439	127.38
317.905	120.38
318.371	126.38
318.837	122.38
319.303	136.38
319.769	134.38
320.235	133.38
320.701	124.38
321.167	150.38
321.633	142.38
322.099	169.38
322.564	216.38
323.03	172.38
323.496	152.38
323.962	148.38
324.427	137.38
324.893	121.38
325.359	125.38
325.824	122.38
326.29	116.38
326.755	123.38
327.221	126.38
327.686	128.38
328.152	120.38
328.617	121.38
329.083	111.38
329.548	132.38
330.014	126.38
330.479	136.38
330.944	146.38
331.41	137.38
331.875	161.38
332.34	149.38
332.805	144.38
333.271	177.38
333.736	201.38
334.201	190.38
334.666	173.38
335.131	158.38
335.596	159.38
336.061	159.38
336.526	188.38
336.991	164.38
337.456	173.38
337.921	146.38
338.386	148.38
338.851	140.38
339.316	122.38
339.781	136.38
340.246	120.38
340.711	119.38
341.175	118.38
341.64	138.38
342.105	133.38
342.569	119.38
343.034	138.38
343.499	141.38
343.963	152.38
344.428	107.38
344.893	139.38
345.357	132.38
345.822	146.38
346.286	150.38
346.751	148.38
347.215	132.38
347.679	136.38
348.144	131.38
348.608	148.38
349.073	136.38
349.537	140.38
350.001	172.38
350.465	160.38
350.93	150.38
351.394	147.38
351.858	136.38
352.322	158.38
352.786	152.38
353.25	135.38
353.715	147.38
354.179	151.38
354.643	154.38
355.107	164.38
355.571	157.38
356.035	163.38
356.498	178.38
356.962	166.38
357.426	179.38
357.89	172.38
358.354	158.38
358.818	169.38
359.281	150.38
359.745	168.38
360.209	160.38
360.673	170.38
361.136	161.38
361.6	162.38
362.064	172.38
362.527	157.38
362.991	159.38
363.454	172.38
363.918	168.38
364.381	154.38
364.845	168.38
365.308	169.38
365.772	166.38
366.235	152.38
366.698	175.38
367.162	176.38
367.625	195.38
368.088	182.38
368.552	156.38
369.015	181.38
369.478	189.38
369.941	173.38
370.404	179.38
370.867	182.38
371.331	181.38
371.794	214.38
372.257	210.38
372.72	226.38
373.183	212.38
373.646	202.38
374.109	195.38
374.572	238.38
375.035	281.38
375.497	219.38
375.96	184.38
376.423	184.38
376.886	197.38
377.349	193.38
377.811	186.38
378.274	203.38
378.737	195.38
379.199	181.38
379.662	183.38
380.125	188.38
380.587	227.38
381.05	216.38
381.512	240.38
381.975	222.38
382.437	222.38
382.9	239.38
383.362	210.38
383.825	209.38
384.287	246.38
384.75	286.38
385.212	264.38
385.674	228.38
386.136	216.38
386.599	186.38
387.061	224.38
387.523	230.38
387.985	223.38
388.447	231.38
388.91	245.38
389.372	303.38
389.834	297.38
390.296	263.38
390.758	250.38
391.22	265.38
391.682	282.38
392.144	397.38
392.606	409.38
393.068	278.38
393.529	251.38
393.991	226.38
394.453	209.38
394.915	258.38
395.377	285.38
395.838	343.38
396.3	266.38
396.762	217.38
397.224	202.38
397.685	207.38
398.147	197.38
398.608	208.38
399.07	205.38
399.531	213.38
399.993	212.38
400.454	212.38
400.916	235.38
401.377	222.38
401.839	240.38
402.3	217.38
402.762	218.38
403.223	252.38
403.684	271.38
404.145	230.38
404.607	238.38
405.068	225.38
405.529	256.38
405.99	239.38
406.451	262.38
406.913	241.38
407.374	243.38
407.835	230.38
408.296	246.38
408.757	238.38
409.218	250.38
409.679	259.38
410.14	254.38
410.601	264.38
411.062	254.38
411.522	302.38
411.983	301.38
412.444	292.38
412.905	259.38
413.366	256.38
413.826	252.38
414.287	292.38
414.748	338.38
415.208	299.38
415.669	294.38
416.13	276.38
416.59	274.38
417.051	284.38
417.511	286.38
417.972	297.38
418.432	299.38
418.893	344.38
419.353	348.38
419.814	263.38
420.274	244.38
420.734	274.38
421.195	275.38
421.655	258.38
422.115	252.38
422.576	269.38
423.036	280.38
423.496	264.38
423.956	274.38
424.416	293.38
424.876	304.38
425.336	338.38
425.797	329.38
426.257	327.38
426.717	310.38
427.177	299.38
427.637	322.38
428.097	338.38
428.556	351.38
429.016	354.38
429.476	325.38
429.936	313.38
430.396	336.38
430.856	354.38
431.315	337.38
431.775	376.38
432.235	375.38
432.694	363.38
433.154	360.38
433.614	360.38
434.073	328.38
434.533	329.38
434.993	300.38
435.452	295.38
435.912	322.38
436.371	316.38
436.83	309.38
437.29	319.38
437.749	316.38
438.209	276.38
438.668	305.38
439.127	333.38
439.587	281.38
440.046	299.38
440.505	296.38
440.964	294.38
441.424	305.38
441.883	306.38
442.342	287.38
442.801	279.38
443.26	297.38
443.719	288.38
444.178	307.38
444.637	274.38
445.096	277.38
445.555	293.38
446.014	301.38
446.473	271.38
446.932	285.38
447.391	288.38
447.849	290.38
448.308	295.38
448.767	288.38
449.226	310.38
449.685	294.38
450.143	316.38
450.602	334.38
451.061	289.38
451.519	310.38
451.978	302.38
452.436	308.38
452.895	302.38
453.353	292.38
453.812	286.38
454.27	283.38
454.729	302.38
455.187	292.38
455.646	289.38
456.104	290.38
456.562	276.38
457.021	290.38
457.479	290.38
457.937	294.38
458.395	296.38
458.854	311.38
459.312	292.38
459.77	291.38
460.228	311.38
460.686	299.38
461.144	304.38
461.602	292.38
462.06	313.38
462.518	307.38
462.976	284.38
463.434	281.38
463.892	300.38
464.35	291.38
464.808	320.38
465.266	323.38
465.724	325.38
466.181	317.38
466.639	337.38
467.097	331.38
467.555	332.38
468.012	322.38
468.47	331.38
468.928	344.38
469.385	360.38
469.843	340.38
470.3	382.38
470.758	351.38
471.215	375.38
471.673	352.38
472.13	387.38
472.588	394.38
473.045	378.38
473.503	406.38
473.96	402.38
474.417	431.38
474.875	440.38
475.332	441.38
475.789	453.38
476.246	460.38
476.704	463.38
477.161	480.38
477.618	502.38
478.075	558.38
478.532	570.38
478.989	622.38
479.446	674.38
479.903	704.38
480.36	743.38
480.817	821.38
481.274	864.38
481.731	984.38
482.188	1047.38
482.645	1128.38
483.102	1209.38
483.558	1318.38
484.015	1374.38
484.472	1406.38
484.929	1339.38
485.385	1254.38
485.842	1230.38
486.299	1149.38
486.755	1075.38
487.212	956.38
487.668	893.38
488.125	800.38
488.582	739.38
489.038	709.38
489.494	694.38
489.951	648.38
490.407	659.38
490.864	630.38
491.32	620.38
491.776	620.38
492.233	603.38
492.689	598.38
493.145	581.38
493.602	584.38
494.058	602.38
494.514	632.38
494.97	609.38
495.426	612.38
495.882	593.38
496.338	609.38
496.794	672.38
497.251	617.38
497.707	630.38
498.163	632.38
498.618	648.38
499.074	647.38
499.53	638.38
499.986	658.38
500.442	669.38
500.898	659.38
501.354	701.38
501.809	704.38
502.265	675.38
502.721	748.38
503.177	710.38
503.632	698.38
504.088	666.38
504.543	756.38
504.999	706.38
505.455	662.38
505.91	632.38
506.366	621.38
506.821	598.38
507.277	612.38
507.732	630.38
508.187	608.38
508.643	597.38
509.098	627.38
509.553	615.38
510.009	616.38
510.464	629.38
510.919	633.38
511.375	640.38
511.83	663.38
512.285	673.38
512.74	655.38
513.195	660.38
513.65	695.38
514.105	721.38
514.56	725.38
515.015	716.38
515.47	738.38
515.925	718.38
516.38	728.38
516.835	748.38
517.29	732.38
517.745	726.38
518.2	734.38
518.655	705.38
519.109	705.38
519.564	714.38
520.019	695.38
520.474	672.38
520.928	676.38
521.383	653.38
521.838	652.38
522.292	632.38
522.747	660.38
523.201	661.38
523.656	682.38
524.11	646.38
524.565	646.38
525.019	639.38
525.474	636.38
525.928	650.38
526.382	659.38
526.837	650.38
527.291	633.38
527.745	633.38
528.2	654.38
528.654	630.38
529.108	642.38
529.562	649.38
530.016	627.38
530.47	640.38
530.925	618.38
531.379	667.38
531.833	672.38
532.287	638.38
532.741	632.38
533.195	621.38
533.649	632.38
534.103	658.38
534.556	629.38
535.01	658.38
535.464	633.38
535.918	656.38
536.372	634.38
536.826	660.38
537.279	642.38
537.733	646.38
538.187	679.38
538.64	668.38
539.094	664.38
539.548	676.38
540.001	647.38
540.455	658.38
540.908	685.38
541.362	653.38
541.815	658.38
542.269	700.38
542.722	674.38
543.175	694.38
543.629	732.38
544.082	695.38
544.536	682.38
544.989	709.38
545.442	713.38
545.895	701.38
546.349	722.38
546.802	695.38
547.255	705.38
547.708	760.38
548.161	724.38
548.614	745.38
549.067	735.38
549.52	710.38
549.973	697.38
550.426	694.38
550.879	687.38
551.332	677.38
551.785	734.38
552.238	719.38
552.691	730.38
553.144	738.38
553.596	738.38
554.049	763.38
554.502	762.38
554.955	780.38
555.407	758.38
555.86	760.38
556.313	770.38
556.765	750.38
557.218	761.38
557.67	718.38
558.123	759.38
558.576	746.38
559.028	752.38
559.48	723.38
559.933	735.38
560.385	729.38
560.838	717.38
561.29	695.38
561.742	698.38
562.195	684.38
562.647	679.38
563.099	674.38
563.551	672.38
564.004	684.38
564.456	673.38
564.908	679.38
565.36	677.38
565.812	638.38
566.264	626.38
566.716	625.38
567.168	633.38
567.62	652.38
568.072	630.38
568.524	613.38
568.976	609.38
569.428	595.38
569.88	610.38
570.332	605.38
570.784	607.38
571.235	628.38
571.687	628.38
572.139	617.38
572.59	612.38
573.042	614.38
573.494	618.38
573.945	584.38
574.397	578.38
574.849	584.38
575.3	578.38
575.752	581.38
576.203	580.38
576.655	585.38
577.106	610.38
577.557	589.38
578.009	562.38
578.46	578.38
578.912	574.38
579.363	598.38
579.814	587.38
580.265	606.38
580.717	616.38
581.168	585.38
581.619	574.38
582.07	578.38
582.521	579.38
582.972	584.38
583.423	600.38
583.875	612.38
584.326	618.38
584.777	686.38
585.227	791.38
585.678	895.38
586.129	910.38
586.58	963.38
587.031	982.38
587.482	1036.38
587.933	1291.38
588.384	1160.38
588.834	957.38
589.285	675.38
589.736	656.38
590.186	678.38
590.637	630.38
591.088	645.38
591.538	644.38
591.989	620.38
592.439	631.38
592.89	618.38
593.34	649.38
593.791	646.38
594.241	597.38
594.692	645.38
595.142	631.38
595.593	603.38
596.043	665.38
596.493	642.38
596.943	652.38
597.394	647.38
597.844	636.38
598.294	635.38
598.744	650.38
599.195	658.38
599.645	724.38
600.095	728.38
600.545	732.38
600.995	773.38
601.445	825.38
601.895	845.38
602.345	892.38
602.795	874.38
603.245	836.38
603.695	816.38
604.145	741.38
604.594	726.38
605.044	700.38
605.494	660.38
605.944	638.38
606.393	622.38
606.843	614.38
607.293	622.38
607.743	615.38
608.192	617.38
608.642	616.38
609.091	611.38
609.541	596.38
609.99	636.38
610.44	597.38
610.889	607.38
611.339	598.38
611.788	590.38
612.238	628.38
612.687	630.38
613.136	616.38
613.586	600.38
614.035	621.38
614.484	625.38
614.933	644.38
615.383	613.38
615.832	612.38
616.281	622.38
616.73	588.38
617.179	570.38
617.628	556.38
618.077	545.38
618.526	536.38
618.975	532.38
619.424	535.38
619.873	538.38
620.322	556.38
620.771	519.38
621.22	504.38
621.669	509.38
622.118	536.38
622.567	506.38
623.015	518.38
623.464	478.38
623.913	488.38
624.361	489.38
624.81	495.38
625.259	498.38
625.707	482.38
626.156	489.38
626.604	471.38
627.053	497.38
627.501	504.38
627.95	494.38
628.398	487.38
628.847	457.38
629.295	464.38
629.744	520.38
630.192	526.38
630.64	532.38
631.089	563.38
631.537	602.38
631.985	603.38
632.433	640.38
632.881	629.38
633.33	696.38
633.778	821.38
634.226	616.38
634.674	559.38
635.122	573.38
635.57	555.38
636.018	645.38
636.466	551.38
636.914	483.38
637.362	474.38
637.81	488.38
638.258	471.38
638.705	495.38
639.153	528.38
639.601	532.38
640.049	524.38
640.497	552.38
640.944	565.38
641.392	510.38
641.84	527.38
642.287	493.38
642.735	498.38
643.182	485.38
643.63	488.38
644.078	502.38
644.525	489.38
644.973	497.38
645.42	493.38
645.867	550.38
646.315	536.38
646.762	572.38
647.21	541.38
647.657	566.38
648.104	594.38
648.551	636.38
648.999	667.38
649.446	723.38
649.893	797.38
650.34	902.38
650.787	1104.38
651.234	1388.38
651.682	1834.38
652.129	2554.38
652.576	3742.38
653.023	5231.38
653.47	6446.38
653.917	7240.38
654.363	7646.38
654.81	7966.38
655.257	8520.38
655.704	6310.38
656.151	3750.38
656.598	2423.38
657.044	1667.38
657.491	1293.38
657.938	1025.38
658.385	860.38
658.831	748.38
659.278	700.38
659.724	644.38
660.171	568.38
660.618	559.38
661.064	514.38
661.511	513.38
661.957	497.38
662.404	492.38
662.85	459.38
663.296	484.38
663.743	465.38
664.189	463.38
664.635	439.38
665.082	437.38
665.528	427.38
665.974	430.38
666.42	405.38
666.867	442.38
667.313	447.38
667.759	456.38
668.205	491.38
668.651	493.38
669.097	486.38
669.543	542.38
669.989	545.38
670.435	418.38
670.881	398.38
671.327	380.38
671.773	454.38
672.219	457.38
672.665	475.38
673.11	494.38
673.556	502.38
674.002	504.38
674.448	493.38
674.893	487.38
675.339	437.38
675.785	362.38
676.23	389.38
676.676	340.38
677.122	307.38
677.567	351.38
678.013	326.38
678.458	332.38
678.904	335.38
679.349	335.38
679.794	326.38
680.24	343.38
680.685	331.38
681.131	322.38
681.576	321.38
682.021	326.38
682.466	323.38
682.912	320.38
683.357	342.38
683.802	351.38
684.247	361.38
684.692	376.38
685.137	431.38
685.583	440.38
686.028	448.38
686.473	424.38
686.918	400.38
687.363	356.38
687.807	332.38
688.252	339.38
688.697	328.38
689.142	298.38
689.587	340.38
690.032	299.38
690.477	349.38
690.921	339.38
691.366	323.38
691.811	362.38
692.255	380.38
692.7	439.38
693.145	516.38
693.589	782.38
694.034	977.38
694.478	1074.38
694.923	996.38
695.367	1223.38
695.812	1116.38
696.256	532.38
696.701	351.38
697.145	327.38
697.59	310.38
698.034	315.38
698.478	286.38
698.922	330.38
699.367	290.38
699.811	335.38
700.255	354.38
700.699	376.38
701.143	378.38
701.588	400.38
702.032	399.38
702.476	418.38
702.92	437.38
703.364	503.38
703.808	699.38
704.252	923.38
704.696	1016.38
705.14	1000.38
705.584	1200.38
706.027	958.38
706.471	496.38
706.915	374.38
707.359	310.38
707.803	302.38
708.246	295.38
708.69	288.38
709.134	316.38
709.577	312.38
710.021	311.38
710.465	296.38
710.908	298.38
711.352	286.38
711.795	318.38
712.239	334.38
712.682	363.38
713.126	344.38
713.569	373.38
714.012	349.38
714.456	316.38
714.899	279.38
715.342	310.38
715.786	274.38
716.229	227.38
716.672	264.38
717.115	264.38
717.558	247.38
718.002	249.38
718.445	282.38
718.888	288.38
719.331	286.38
719.774	280.38
720.217	278.38
720.66	283.38
721.103	275.38
721.546	264.38
721.989	236.38
722.432	250.38
722.874	237.38
723.317	256.38
723.76	254.38
724.203	283.38
724.645	350.38
725.088	406.38
725.531	439.38
725.974	433.38
726.416	434.38
726.859	320.38
727.301	250.38
727.744	234.38
728.187	260.38
728.629	259.38
729.071	263.38
729.514	272.38
729.956	256.38
730.399	272.38
730.841	257.38
731.283	282.38
731.726	266.38
732.168	275.38
732.61	263.38
733.053	305.38
733.495	314.38
733.937	328.38
734.379	388.38
734.821	406.38
735.263	555.38
735.705	893.38
736.148	1446.38
736.59	1674.38
737.032	1526.38
737.474	1642.38
737.916	828.38
738.357	444.38
738.799	317.38
739.241	288.38
739.683	269.38
740.125	285.38
740.567	292.38
741.008	296.38
741.45	326.38
741.892	303.38
742.334	307.38
742.775	318.38
743.217	299.38
743.658	294.38
744.1	267.38
744.542	296.38
744.983	324.38
745.425	331.38
745.866	324.38
746.307	295.38
746.749	285.38
747.19	342.38
747.632	547.38
748.073	1010.38
748.514	1464.38
748.956	1834.38
749.397	2401.38
749.838	1976.38
750.279	1636.38
750.72	1189.38
751.162	572.38
751.603	345.38
752.044	258.38
752.485	226.38
752.926	217.38
753.367	217.38
753.808	228.38
754.249	219.38
754.69	204.38
755.131	216.38
755.572	211.38
