Data from 20170802-ORNL-NYSim-Air_HRD10391_10-38-03-656.txt Node
Date: Wed Aug 02 10:38:03 EDT 2017
User: Ender
Spectrometer: HR+D1039
Trigger mode: 0
Integration Time (sec): 1.100000E-3
Scans to average: 1
Electric dark correction enabled: true
Nonlinearity correction enabled: false
Boxcar width: 0
XAxis mode: Wavelengths
Number of Pixels in Spectrum: 2048
>>>>>Begin Spectral Data<<<<<
187.836	-5.88
188.309	-5.88
188.782	-5.88
189.255	12.12
189.728	-9.88
190.201	-17.88
190.674	1.12
191.147	-13.88
191.619	1.12
192.092	-7.88
192.565	4.12
193.038	-2.88
193.511	3.12
193.984	4.12
194.456	8.12
194.929	-6.88
195.402	5.12
195.874	26.12
196.347	23.12
196.82	33.12
197.292	31.12
197.765	38.12
198.237	38.12
198.71	36.12
199.182	44.12
199.655	57.12
200.127	50.12
200.6	44.12
201.072	55.12
201.544	56.12
202.017	72.12
202.489	60.12
202.961	75.12
203.433	65.12
203.906	43.12
204.378	69.12
204.85	75.12
205.322	86.12
205.794	80.12
206.266	77.12
206.739	78.12
207.211	73.12
207.683	89.12
208.155	101.12
208.627	83.12
209.099	74.12
209.57	80.12
210.042	78.12
210.514	84.12
210.986	94.12
211.458	88.12
211.93	89.12
212.402	92.12
212.873	93.12
213.345	72.12
213.817	86.12
214.288	79.12
214.76	83.12
215.232	72.12
215.703	84.12
216.175	80.12
216.646	89.12
217.118	79.12
217.589	80.12
218.061	76.12
218.532	80.12
219.004	83.12
219.475	66.12
219.946	77.12
220.418	81.12
220.889	82.12
221.36	66.12
221.832	79.12
222.303	64.12
222.774	82.12
223.245	77.12
223.717	67.12
224.188	70.12
224.659	76.12
225.13	82.12
225.601	63.12
226.072	82.12
226.543	75.12
227.014	94.12
227.485	58.12
227.956	84.12
228.427	90.12
228.898	88.12
229.369	85.12
229.839	75.12
230.31	79.12
230.781	73.12
231.252	85.12
231.722	79.12
232.193	86.12
232.664	96.12
233.135	72.12
233.605	88.12
234.076	91.12
234.546	87.12
235.017	85.12
235.487	89.12
235.958	81.12
236.428	88.12
236.899	91.12
237.369	96.12
237.84	87.12
238.31	99.12
238.78	94.12
239.251	87.12
239.721	94.12
240.191	95.12
240.662	81.12
241.132	90.12
241.602	98.12
242.072	106.12
242.542	90.12
243.013	94.12
243.483	75.12
243.953	79.12
244.423	86.12
244.893	88.12
245.363	105.12
245.833	91.12
246.303	94.12
246.773	96.12
247.243	80.12
247.712	84.12
248.182	78.12
248.652	80.12
249.122	90.12
249.592	128.12
250.061	153.12
250.531	182.12
251.001	155.12
251.471	128.12
251.94	136.12
252.41	118.12
252.879	96.12
253.349	85.12
253.818	76.12
254.288	80.12
254.757	83.12
255.227	90.12
255.696	95.12
256.166	81.12
256.635	100.12
257.105	99.12
257.574	110.12
258.043	96.12
258.513	120.12
258.982	119.12
259.451	120.12
259.92	119.12
260.389	109.12
260.859	106.12
261.328	103.12
261.797	119.12
262.266	122.12
262.735	99.12
263.204	94.12
263.673	106.12
264.142	92.12
264.611	86.12
265.08	80.12
265.549	100.12
266.018	94.12
266.487	99.12
266.955	74.12
267.424	89.12
267.893	90.12
268.362	98.12
268.83	88.12
269.299	91.12
269.768	88.12
270.236	101.12
270.705	92.12
271.174	112.12
271.642	114.12
272.111	106.12
272.579	116.12
273.048	123.12
273.516	140.12
273.985	131.12
274.453	132.12
274.922	107.12
275.39	100.12
275.858	107.12
276.327	98.12
276.795	89.12
277.263	94.12
277.731	106.12
278.2	145.12
278.668	140.12
279.136	150.12
279.604	126.12
280.072	120.12
280.54	115.12
281.008	122.12
281.477	111.12
281.945	97.12
282.413	102.12
282.881	123.12
283.348	94.12
283.816	104.12
284.284	101.12
284.752	106.12
285.22	100.12
285.688	91.12
286.156	128.12
286.623	160.12
287.091	254.12
287.559	185.12
288.026	139.12
288.494	122.12
288.962	107.12
289.429	118.12
289.897	104.12
290.364	110.12
290.832	101.12
291.3	92.12
291.767	96.12
292.234	105.12
292.702	112.12
293.169	109.12
293.637	95.12
294.104	102.12
294.571	98.12
295.039	107.12
295.506	125.12
295.973	126.12
296.44	112.12
296.908	104.12
297.375	102.12
297.842	113.12
298.309	119.12
298.776	111.12
299.243	118.12
299.71	125.12
300.177	98.12
300.644	122.12
301.111	122.12
301.578	106.12
302.045	107.12
302.512	96.12
302.979	114.12
303.446	118.12
303.913	124.12
304.379	114.12
304.846	99.12
305.313	129.12
305.78	115.12
306.246	123.12
306.713	124.12
307.18	138.12
307.646	142.12
308.113	124.12
308.579	116.12
309.046	120.12
309.512	117.12
309.979	123.12
310.445	119.12
310.912	125.12
311.378	120.12
311.845	120.12
312.311	131.12
312.777	112.12
313.244	118.12
313.71	128.12
314.176	119.12
314.642	152.12
315.109	142.12
315.575	146.12
316.041	110.12
316.507	129.12
316.973	128.12
317.439	121.12
317.905	124.12
318.371	151.12
318.837	122.12
319.303	150.12
319.769	121.12
320.235	135.12
320.701	160.12
321.167	163.12
321.633	142.12
322.099	186.12
322.564	222.12
323.03	177.12
323.496	172.12
323.962	154.12
324.427	140.12
324.893	137.12
325.359	119.12
325.824	156.12
326.29	150.12
326.755	140.12
327.221	151.12
327.686	143.12
328.152	155.12
328.617	137.12
329.083	142.12
329.548	137.12
330.014	152.12
330.479	145.12
330.944	155.12
331.41	154.12
331.875	170.12
332.34	159.12
332.805	172.12
333.271	207.12
333.736	244.12
334.201	214.12
334.666	183.12
335.131	209.12
335.596	182.12
336.061	180.12
336.526	194.12
336.991	172.12
337.456	189.12
337.921	157.12
338.386	149.12
338.851	149.12
339.316	130.12
339.781	143.12
340.246	144.12
340.711	151.12
341.175	140.12
341.64	135.12
342.105	155.12
342.569	146.12
343.034	151.12
343.499	144.12
343.963	141.12
344.428	174.12
344.893	148.12
345.357	160.12
345.822	158.12
346.286	150.12
346.751	159.12
347.215	163.12
347.679	147.12
348.144	189.12
348.608	180.12
349.073	153.12
349.537	182.12
350.001	157.12
350.465	166.12
350.93	170.12
351.394	158.12
351.858	179.12
352.322	158.12
352.786	172.12
353.25	165.12
353.715	166.12
354.179	168.12
354.643	180.12
355.107	168.12
355.571	188.12
356.035	186.12
356.498	180.12
356.962	201.12
357.426	201.12
357.89	189.12
358.354	194.12
358.818	156.12
359.281	162.12
359.745	168.12
360.209	173.12
360.673	172.12
361.136	174.12
361.6	169.12
362.064	193.12
362.527	182.12
362.991	180.12
363.454	200.12
363.918	173.12
364.381	200.12
364.845	194.12
365.308	191.12
365.772	179.12
366.235	185.12
366.698	189.12
367.162	214.12
367.625	211.12
368.088	192.12
368.552	200.12
369.015	197.12
369.478	181.12
369.941	198.12
370.404	217.12
370.867	201.12
371.331	215.12
371.794	235.12
372.257	218.12
372.72	241.12
373.183	230.12
373.646	236.12
374.109	250.12
374.572	268.12
375.035	274.12
375.497	227.12
375.96	209.12
376.423	216.12
376.886	226.12
377.349	211.12
377.811	201.12
378.274	214.12
378.737	226.12
379.199	218.12
379.662	205.12
380.125	214.12
380.587	251.12
381.05	252.12
381.512	254.12
381.975	228.12
382.437	228.12
382.9	245.12
383.362	245.12
383.825	243.12
384.287	277.12
384.75	301.12
385.212	284.12
385.674	244.12
386.136	254.12
386.599	238.12
387.061	248.12
387.523	264.12
387.985	266.12
388.447	264.12
388.91	286.12
389.372	313.12
389.834	302.12
390.296	268.12
390.758	281.12
391.22	289.12
391.682	307.12
392.144	433.12
392.606	421.12
393.068	288.12
393.529	277.12
393.991	293.12
394.453	272.12
394.915	282.12
395.377	316.12
395.838	386.12
396.3	308.12
396.762	236.12
397.224	253.12
397.685	257.12
398.147	247.12
398.608	252.12
399.07	244.12
399.531	247.12
399.993	251.12
400.454	246.12
400.916	230.12
401.377	231.12
401.839	232.12
402.3	268.12
402.762	267.12
403.223	295.12
403.684	280.12
404.145	278.12
404.607	275.12
405.068	275.12
405.529	272.12
405.99	286.12
406.451	266.12
406.913	273.12
407.374	305.12
407.835	283.12
408.296	278.12
408.757	257.12
409.218	276.12
409.679	284.12
410.14	289.12
410.601	301.12
411.062	273.12
411.522	322.12
411.983	325.12
412.444	314.12
412.905	288.12
413.366	288.12
413.826	310.12
414.287	330.12
414.748	363.12
415.208	377.12
415.669	322.12
416.13	321.12
416.59	319.12
417.051	298.12
417.511	338.12
417.972	353.12
418.432	360.12
418.893	389.12
419.353	379.12
419.814	310.12
420.274	288.12
420.734	280.12
421.195	296.12
421.655	318.12
422.115	306.12
422.576	303.12
423.036	318.12
423.496	318.12
423.956	328.12
424.416	325.12
424.876	382.12
425.336	372.12
425.797	393.12
426.257	364.12
426.717	336.12
427.177	326.12
427.637	353.12
428.097	380.12
428.556	394.12
429.016	409.12
429.476	411.12
429.936	388.12
430.396	402.12
430.856	381.12
431.315	394.12
431.775	414.12
432.235	441.12
432.694	440.12
433.154	442.12
433.614	405.12
434.073	420.12
434.533	366.12
434.993	381.12
435.452	355.12
435.912	357.12
436.371	361.12
436.83	335.12
437.29	339.12
437.749	330.12
438.209	348.12
438.668	330.12
439.127	359.12
439.587	356.12
440.046	329.12
440.505	340.12
440.964	315.12
441.424	352.12
441.883	363.12
442.342	330.12
442.801	325.12
443.26	314.12
443.719	326.12
444.178	336.12
444.637	347.12
445.096	317.12
445.555	332.12
446.014	323.12
446.473	332.12
446.932	307.12
447.391	331.12
447.849	342.12
448.308	351.12
448.767	334.12
449.226	356.12
449.685	359.12
450.143	350.12
450.602	370.12
451.061	342.12
451.519	337.12
451.978	358.12
452.436	361.12
452.895	348.12
453.353	347.12
453.812	346.12
454.27	332.12
454.729	347.12
455.187	349.12
455.646	330.12
456.104	353.12
456.562	342.12
457.021	367.12
457.479	321.12
457.937	382.12
458.395	360.12
458.854	350.12
459.312	351.12
459.77	331.12
460.228	346.12
460.686	386.12
461.144	359.12
461.602	355.12
462.06	351.12
462.518	336.12
462.976	354.12
463.434	374.12
463.892	368.12
464.35	352.12
464.808	376.12
465.266	378.12
465.724	358.12
466.181	366.12
466.639	391.12
467.097	388.12
467.555	401.12
468.012	412.12
468.47	388.12
468.928	411.12
469.385	428.12
469.843	408.12
470.3	408.12
470.758	446.12
471.215	466.12
471.673	454.12
472.13	479.12
472.588	490.12
473.045	472.12
473.503	468.12
473.96	489.12
474.417	490.12
474.875	519.12
475.332	557.12
475.789	536.12
476.246	553.12
476.704	553.12
477.161	580.12
477.618	610.12
478.075	637.12
478.532	693.12
478.989	734.12
479.446	825.12
479.903	817.12
480.36	913.12
480.817	988.12
481.274	1054.12
481.731	1190.12
482.188	1267.12
482.645	1334.12
483.102	1454.12
483.558	1548.12
484.015	1580.12
484.472	1571.12
484.929	1566.12
485.385	1486.12
485.842	1439.12
486.299	1380.12
486.755	1282.12
487.212	1136.12
487.668	1046.12
488.125	947.12
488.582	884.12
489.038	833.12
489.494	822.12
489.951	813.12
490.407	790.12
490.864	750.12
491.32	724.12
491.776	740.12
492.233	749.12
492.689	687.12
493.145	700.12
493.602	705.12
494.058	731.12
494.514	718.12
494.97	724.12
495.426	710.12
495.882	721.12
496.338	726.12
496.794	768.12
497.251	754.12
497.707	729.12
498.163	753.12
498.618	745.12
499.074	744.12
499.53	779.12
499.986	759.12
500.442	740.12
500.898	780.12
501.354	772.12
501.809	777.12
502.265	763.12
502.721	802.12
503.177	852.12
503.632	822.12
504.088	809.12
504.543	878.12
504.999	846.12
505.455	776.12
505.91	749.12
506.366	764.12
506.821	767.12
507.277	752.12
507.732	717.12
508.187	746.12
508.643	725.12
509.098	718.12
509.553	747.12
510.009	746.12
510.464	776.12
510.919	792.12
511.375	786.12
511.83	821.12
512.285	826.12
512.74	865.12
513.195	830.12
513.65	832.12
514.105	837.12
514.56	857.12
515.015	870.12
515.47	885.12
515.925	917.12
516.38	882.12
516.835	882.12
517.29	885.12
517.745	901.12
518.2	879.12
518.655	833.12
519.109	849.12
519.564	852.12
520.019	831.12
520.474	810.12
520.928	810.12
521.383	774.12
521.838	823.12
522.292	778.12
522.747	787.12
523.201	768.12
523.656	798.12
524.11	781.12
524.565	760.12
525.019	791.12
525.474	786.12
525.928	799.12
526.382	769.12
526.837	766.12
527.291	769.12
527.745	780.12
528.2	762.12
528.654	792.12
529.108	762.12
529.562	753.12
530.016	747.12
530.47	800.12
530.925	782.12
531.379	774.12
531.833	798.12
532.287	758.12
532.741	779.12
533.195	760.12
533.649	748.12
534.103	776.12
534.556	804.12
535.01	764.12
535.464	762.12
535.918	770.12
536.372	797.12
536.826	797.12
537.279	803.12
537.733	759.12
538.187	780.12
538.64	759.12
539.094	797.12
539.548	787.12
540.001	793.12
540.455	812.12
540.908	817.12
541.362	806.12
541.815	824.12
542.269	846.12
542.722	844.12
543.175	851.12
543.629	818.12
544.082	824.12
544.536	851.12
544.989	838.12
545.442	848.12
545.895	848.12
546.349	844.12
546.802	870.12
547.255	830.12
547.708	856.12
548.161	886.12
548.614	875.12
549.067	858.12
549.52	873.12
549.973	870.12
550.426	881.12
550.879	878.12
551.332	851.12
551.785	840.12
552.238	884.12
552.691	896.12
553.144	894.12
553.596	904.12
554.049	898.12
554.502	909.12
554.955	938.12
555.407	957.12
555.86	945.12
556.313	914.12
556.765	911.12
557.218	916.12
557.67	891.12
558.123	899.12
558.576	902.12
559.028	904.12
559.48	904.12
559.933	894.12
560.385	878.12
560.838	860.12
561.29	832.12
561.742	840.12
562.195	829.12
562.647	810.12
563.099	816.12
563.551	800.12
564.004	816.12
564.456	825.12
564.908	796.12
565.36	768.12
565.812	753.12
566.264	738.12
566.716	752.12
567.168	752.12
567.62	732.12
568.072	729.12
568.524	748.12
568.976	776.12
569.428	713.12
569.88	714.12
570.332	721.12
570.784	729.12
571.235	735.12
571.687	719.12
572.139	746.12
572.59	744.12
573.042	760.12
573.494	741.12
573.945	730.12
574.397	739.12
574.849	729.12
575.3	728.12
575.752	683.12
576.203	722.12
576.655	715.12
577.106	709.12
577.557	681.12
578.009	663.12
578.46	705.12
578.912	693.12
579.363	694.12
579.814	675.12
580.265	690.12
580.717	712.12
581.168	689.12
581.619	708.12
582.07	714.12
582.521	709.12
582.972	713.12
583.423	694.12
583.875	716.12
584.326	744.12
584.777	808.12
585.227	889.12
585.678	946.12
586.129	996.12
586.58	1023.12
587.031	1068.12
587.482	1104.12
587.933	1344.12
588.384	1208.12
588.834	1053.12
589.285	833.12
589.736	772.12
590.186	772.12
590.637	774.12
591.088	797.12
591.538	785.12
591.989	718.12
592.439	752.12
592.89	715.12
593.34	710.12
593.791	756.12
594.241	770.12
594.692	713.12
595.142	742.12
595.593	735.12
596.043	721.12
596.493	750.12
596.943	752.12
597.394	766.12
597.844	747.12
598.294	722.12
598.744	752.12
599.195	794.12
599.645	826.12
600.095	870.12
600.545	930.12
600.995	940.12
601.445	984.12
601.895	1033.12
602.345	1076.12
602.795	1032.12
603.245	1014.12
603.695	986.12
604.145	918.12
604.594	850.12
605.044	834.12
605.494	782.12
605.944	766.12
606.393	718.12
606.843	746.12
607.293	702.12
607.743	699.12
608.192	724.12
608.642	748.12
609.091	724.12
609.541	753.12
609.99	716.12
610.44	683.12
610.889	695.12
611.339	708.12
611.788	717.12
612.238	700.12
612.687	703.12
613.136	695.12
613.586	698.12
614.035	702.12
614.484	741.12
614.933	754.12
615.383	719.12
615.832	703.12
616.281	689.12
616.73	669.12
617.179	681.12
617.628	646.12
618.077	675.12
618.526	636.12
618.975	632.12
619.424	618.12
619.873	628.12
620.322	618.12
620.771	631.12
621.22	599.12
621.669	608.12
622.118	596.12
622.567	601.12
623.015	592.12
623.464	567.12
623.913	573.12
624.361	597.12
624.81	564.12
625.259	565.12
625.707	568.12
626.156	561.12
626.604	576.12
627.053	568.12
627.501	588.12
627.95	582.12
628.398	605.12
628.847	578.12
629.295	570.12
629.744	578.12
630.192	597.12
630.64	584.12
631.089	632.12
631.537	656.12
631.985	674.12
632.433	666.12
632.881	678.12
633.33	727.12
633.778	860.12
634.226	704.12
634.674	618.12
635.122	631.12
635.57	606.12
636.018	686.12
636.466	629.12
636.914	602.12
637.362	576.12
637.81	569.12
638.258	580.12
638.705	595.12
639.153	611.12
639.601	614.12
640.049	625.12
640.497	645.12
640.944	664.12
641.392	646.12
641.84	609.12
642.287	570.12
642.735	575.12
643.182	580.12
643.63	554.12
644.078	548.12
644.525	562.12
644.973	609.12
645.42	599.12
645.867	623.12
646.315	620.12
646.762	636.12
647.21	679.12
647.657	688.12
648.104	719.12
648.551	760.12
648.999	776.12
649.446	858.12
649.893	970.12
650.34	1113.12
650.787	1326.12
651.234	1635.12
651.682	2218.12
652.129	3101.12
652.576	4432.12
653.023	6214.12
653.47	7673.12
653.917	8540.12
654.363	9048.12
654.81	9634.12
655.257	10117.12
655.704	7552.12
656.151	4516.12
656.598	2857.12
657.044	2016.12
657.491	1526.12
657.938	1262.12
658.385	1057.12
658.831	923.12
659.278	841.12
659.724	789.12
660.171	708.12
660.618	647.12
661.064	608.12
661.511	602.12
661.957	568.12
662.404	565.12
662.85	544.12
663.296	554.12
663.743	562.12
664.189	523.12
664.635	534.12
665.082	515.12
665.528	523.12
665.974	535.12
666.42	496.12
666.867	470.12
667.313	493.12
667.759	535.12
668.205	550.12
668.651	553.12
669.097	522.12
669.543	542.12
669.989	570.12
670.435	498.12
670.881	466.12
671.327	486.12
671.773	531.12
672.219	532.12
672.665	562.12
673.11	595.12
673.556	634.12
674.002	584.12
674.448	601.12
674.893	586.12
675.339	500.12
675.785	433.12
676.23	439.12
676.676	420.12
677.122	382.12
677.567	387.12
678.013	390.12
678.458	363.12
678.904	369.12
679.349	370.12
679.794	385.12
680.24	393.12
680.685	384.12
681.131	381.12
681.576	359.12
682.021	369.12
682.466	378.12
682.912	387.12
683.357	384.12
683.802	421.12
684.247	454.12
684.692	448.12
685.137	478.12
685.583	513.12
686.028	532.12
686.473	482.12
686.918	448.12
687.363	426.12
687.807	420.12
688.252	376.12
688.697	386.12
689.142	359.12
689.587	334.12
690.032	398.12
690.477	378.12
690.921	375.12
691.366	394.12
691.811	403.12
692.255	484.12
692.7	460.12
693.145	629.12
693.589	866.12
694.034	1176.12
694.478	1288.12
694.923	1214.12
695.367	1460.12
695.812	1319.12
696.256	585.12
696.701	374.12
697.145	376.12
697.59	369.12
698.034	362.12
698.478	345.12
698.922	354.12
699.367	365.12
699.811	379.12
700.255	391.12
700.699	422.12
701.143	454.12
701.588	494.12
702.032	492.12
702.476	505.12
702.92	501.12
703.364	582.12
703.808	816.12
704.252	1108.12
704.696	1257.12
705.14	1179.12
705.584	1423.12
706.027	1180.12
706.471	607.12
706.915	422.12
707.359	376.12
707.803	377.12
708.246	340.12
708.69	304.12
709.134	355.12
709.577	330.12
710.021	325.12
710.465	329.12
710.908	330.12
711.352	313.12
711.795	370.12
712.239	385.12
712.682	395.12
713.126	388.12
713.569	434.12
714.012	392.12
714.456	367.12
714.899	341.12
715.342	331.12
715.786	305.12
716.229	291.12
716.672	295.12
717.115	294.12
717.558	270.12
718.002	286.12
718.445	301.12
718.888	313.12
719.331	341.12
719.774	326.12
720.217	310.12
720.66	335.12
721.103	310.12
721.546	305.12
721.989	291.12
722.432	294.12
722.874	291.12
723.317	284.12
723.76	290.12
724.203	309.12
724.645	417.12
725.088	492.12
725.531	510.12
725.974	506.12
726.416	531.12
726.859	387.12
727.301	295.12
727.744	264.12
728.187	295.12
728.629	278.12
729.071	273.12
729.514	304.12
729.956	330.12
730.399	309.12
730.841	308.12
731.283	321.12
731.726	314.12
732.168	297.12
732.61	298.12
733.053	334.12
733.495	359.12
733.937	382.12
734.379	431.12
734.821	502.12
735.263	636.12
735.705	1069.12
736.148	1720.12
736.59	2002.12
737.032	1847.12
737.474	2006.12
737.916	1008.12
738.357	505.12
738.799	384.12
739.241	316.12
739.683	339.12
740.125	326.12
740.567	342.12
741.008	342.12
741.45	349.12
741.892	380.12
742.334	368.12
742.775	363.12
743.217	353.12
743.658	344.12
744.1	325.12
744.542	328.12
744.983	362.12
745.425	396.12
745.866	368.12
746.307	340.12
746.749	345.12
747.19	388.12
747.632	656.12
748.073	1135.12
748.514	1804.12
748.956	2214.12
749.397	2900.12
749.838	2355.12
750.279	1950.12
750.72	1480.12
751.162	702.12
751.603	406.12
752.044	314.12
752.485	267.12
752.926	265.12
753.367	256.12
753.808	253.12
754.249	250.12
754.69	267.12
