Data from 20170802-ORNL-NYSim-Air_HRD10391_10-38-49-673.txt Node
Date: Wed Aug 02 10:38:49 EDT 2017
User: Ender
Spectrometer: HR+D1039
Trigger mode: 0
Integration Time (sec): 1.100000E-3
Scans to average: 1
Electric dark correction enabled: true
Nonlinearity correction enabled: false
Boxcar width: 0
XAxis mode: Wavelengths
Number of Pixels in Spectrum: 2048
>>>>>Begin Spectral Data<<<<<
187.836	-2.19
188.309	-2.19
188.782	-2.19
189.255	0.81
189.728	-17.19
190.201	-5.19
190.674	-16.19
191.147	-6.19
191.619	-3.19
192.092	-10.19
192.565	1.81
193.038	3.81
193.511	-2.19
193.984	9.81
194.456	-6.19
194.929	11.81
195.402	17.81
195.874	22.81
196.347	13.81
196.82	26.81
197.292	6.81
197.765	15.81
198.237	47.81
198.71	34.81
199.182	41.81
199.655	47.81
200.127	44.81
200.6	40.81
201.072	59.81
201.544	67.81
202.017	53.81
202.489	77.81
202.961	68.81
203.433	73.81
203.906	81.81
204.378	72.81
204.85	74.81
205.322	63.81
205.794	83.81
206.266	80.81
206.739	60.81
207.211	70.81
207.683	86.81
208.155	90.81
208.627	85.81
209.099	75.81
209.57	73.81
210.042	92.81
210.514	87.81
210.986	77.81
211.458	83.81
211.93	86.81
212.402	82.81
212.873	92.81
213.345	91.81
213.817	72.81
214.288	95.81
214.76	80.81
215.232	66.81
215.703	78.81
216.175	86.81
216.646	71.81
217.118	78.81
217.589	75.81
218.061	73.81
218.532	97.81
219.004	83.81
219.475	87.81
219.946	68.81
220.418	101.81
220.889	80.81
221.36	63.81
221.832	85.81
222.303	77.81
222.774	78.81
223.245	62.81
223.717	90.81
224.188	80.81
224.659	85.81
225.13	75.81
225.601	74.81
226.072	81.81
226.543	87.81
227.014	89.81
227.485	73.81
227.956	79.81
228.427	85.81
228.898	80.81
229.369	78.81
229.839	79.81
230.31	55.81
230.781	76.81
231.252	77.81
231.722	88.81
232.193	76.81
232.664	79.81
233.135	84.81
233.605	77.81
234.076	83.81
234.546	80.81
235.017	79.81
235.487	85.81
235.958	66.81
236.428	80.81
236.899	85.81
237.369	83.81
237.84	103.81
238.31	83.81
238.78	86.81
239.251	83.81
239.721	83.81
240.191	95.81
240.662	93.81
241.132	83.81
241.602	85.81
242.072	80.81
242.542	79.81
243.013	72.81
243.483	68.81
243.953	82.81
244.423	79.81
244.893	89.81
245.363	90.81
245.833	71.81
246.303	85.81
246.773	73.81
247.243	97.81
247.712	84.81
248.182	99.81
248.652	77.81
249.122	98.81
249.592	105.81
250.061	122.81
250.531	144.81
251.001	123.81
251.471	122.81
251.94	101.81
252.41	82.81
252.879	95.81
253.349	86.81
253.818	83.81
254.288	79.81
254.757	93.81
255.227	82.81
255.696	80.81
256.166	75.81
256.635	84.81
257.105	87.81
257.574	87.81
258.043	70.81
258.513	107.81
258.982	104.81
259.451	115.81
259.92	99.81
260.389	94.81
260.859	90.81
261.328	95.81
261.797	99.81
262.266	100.81
262.735	118.81
263.204	76.81
263.673	86.81
264.142	87.81
264.611	87.81
265.08	82.81
265.549	104.81
266.018	83.81
266.487	78.81
266.955	95.81
267.424	91.81
267.893	83.81
268.362	93.81
268.83	79.81
269.299	82.81
269.768	84.81
270.236	100.81
270.705	99.81
271.174	97.81
271.642	94.81
272.111	103.81
272.579	87.81
273.048	122.81
273.516	131.81
273.985	128.81
274.453	126.81
274.922	109.81
275.39	98.81
275.858	95.81
276.327	94.81
276.795	99.81
277.263	98.81
277.731	115.81
278.2	109.81
278.668	111.81
279.136	112.81
279.604	89.81
280.072	105.81
280.54	96.81
281.008	97.81
281.477	86.81
281.945	93.81
282.413	90.81
282.881	99.81
283.348	107.81
283.816	81.81
284.284	93.81
284.752	105.81
285.22	98.81
285.688	102.81
286.156	95.81
286.623	139.81
287.091	212.81
287.559	133.81
288.026	94.81
288.494	111.81
288.962	86.81
289.429	95.81
289.897	102.81
290.364	82.81
290.832	102.81
291.3	94.81
291.767	100.81
292.234	100.81
292.702	90.81
293.169	94.81
293.637	98.81
294.104	92.81
294.571	101.81
295.039	99.81
295.506	92.81
295.973	97.81
296.44	95.81
296.908	114.81
297.375	85.81
297.842	105.81
298.309	106.81
298.776	89.81
299.243	75.81
299.71	93.81
300.177	97.81
300.644	91.81
301.111	105.81
301.578	93.81
302.045	100.81
302.512	100.81
302.979	100.81
303.446	105.81
303.913	108.81
304.379	92.81
304.846	114.81
305.313	102.81
305.78	117.81
306.246	105.81
306.713	123.81
307.18	126.81
307.646	141.81
308.113	115.81
308.579	102.81
309.046	105.81
309.512	100.81
309.979	95.81
310.445	107.81
310.912	100.81
311.378	108.81
311.845	94.81
312.311	110.81
312.777	89.81
313.244	119.81
313.71	104.81
314.176	110.81
314.642	97.81
315.109	113.81
315.575	118.81
316.041	109.81
316.507	131.81
316.973	117.81
317.439	109.81
317.905	109.81
318.371	120.81
318.837	93.81
319.303	131.81
319.769	120.81
320.235	127.81
320.701	121.81
321.167	116.81
321.633	134.81
322.099	142.81
322.564	170.81
323.03	158.81
323.496	115.81
323.962	126.81
324.427	131.81
324.893	156.81
325.359	116.81
325.824	118.81
326.29	123.81
326.755	122.81
327.221	150.81
327.686	117.81
328.152	121.81
328.617	112.81
329.083	118.81
329.548	113.81
330.014	116.81
330.479	126.81
330.944	125.81
331.41	153.81
331.875	129.81
332.34	151.81
332.805	142.81
333.271	156.81
333.736	157.81
334.201	176.81
334.666	153.81
335.131	158.81
335.596	131.81
336.061	132.81
336.526	143.81
336.991	145.81
337.456	143.81
337.921	136.81
338.386	121.81
338.851	116.81
339.316	111.81
339.781	117.81
340.246	104.81
340.711	115.81
341.175	107.81
341.64	122.81
342.105	112.81
342.569	123.81
343.034	111.81
343.499	131.81
343.963	129.81
344.428	114.81
344.893	117.81
345.357	129.81
345.822	116.81
346.286	125.81
346.751	121.81
347.215	127.81
347.679	115.81
348.144	133.81
348.608	139.81
349.073	138.81
349.537	130.81
350.001	141.81
350.465	137.81
350.93	132.81
351.394	137.81
351.858	118.81
352.322	131.81
352.786	135.81
353.25	139.81
353.715	142.81
354.179	125.81
354.643	132.81
355.107	135.81
355.571	138.81
356.035	150.81
356.498	148.81
356.962	156.81
357.426	155.81
357.89	157.81
358.354	140.81
358.818	149.81
359.281	136.81
359.745	130.81
360.209	121.81
360.673	119.81
361.136	150.81
361.6	147.81
362.064	158.81
362.527	142.81
362.991	151.81
363.454	128.81
363.918	146.81
364.381	150.81
364.845	147.81
365.308	122.81
365.772	136.81
366.235	141.81
366.698	138.81
367.162	161.81
367.625	198.81
368.088	149.81
368.552	156.81
369.015	146.81
369.478	163.81
369.941	165.81
370.404	151.81
370.867	153.81
371.331	145.81
371.794	155.81
372.257	181.81
372.72	180.81
373.183	175.81
373.646	185.81
374.109	187.81
374.572	192.81
375.035	195.81
375.497	203.81
375.96	174.81
376.423	143.81
376.886	147.81
377.349	143.81
377.811	148.81
378.274	153.81
378.737	145.81
379.199	153.81
379.662	153.81
380.125	166.81
380.587	180.81
381.05	195.81
381.512	178.81
381.975	173.81
382.437	195.81
382.9	179.81
383.362	176.81
383.825	176.81
384.287	224.81
384.75	234.81
385.212	209.81
385.674	200.81
386.136	167.81
386.599	170.81
387.061	188.81
387.523	185.81
387.985	181.81
388.447	216.81
388.91	233.81
389.372	263.81
389.834	238.81
390.296	209.81
390.758	205.81
391.22	209.81
391.682	247.81
392.144	305.81
392.606	288.81
393.068	209.81
393.529	179.81
393.991	216.81
394.453	187.81
394.915	184.81
395.377	213.81
395.838	264.81
396.3	229.81
396.762	185.81
397.224	178.81
397.685	171.81
398.147	165.81
398.608	185.81
399.07	197.81
399.531	160.81
399.993	174.81
400.454	193.81
400.916	168.81
401.377	211.81
401.839	179.81
402.3	183.81
402.762	203.81
403.223	204.81
403.684	211.81
404.145	189.81
404.607	183.81
405.068	181.81
405.529	175.81
405.99	206.81
406.451	190.81
406.913	183.81
407.374	196.81
407.835	199.81
408.296	183.81
408.757	201.81
409.218	206.81
409.679	206.81
410.14	216.81
410.601	232.81
411.062	213.81
411.522	237.81
411.983	261.81
412.444	222.81
412.905	220.81
413.366	223.81
413.826	212.81
414.287	224.81
414.748	258.81
415.208	271.81
415.669	234.81
416.13	224.81
416.59	203.81
417.051	227.81
417.511	233.81
417.972	229.81
418.432	253.81
418.893	276.81
419.353	265.81
419.814	219.81
420.274	216.81
420.734	214.81
421.195	209.81
421.655	236.81
422.115	221.81
422.576	208.81
423.036	217.81
423.496	207.81
423.956	229.81
424.416	229.81
424.876	261.81
425.336	246.81
425.797	257.81
426.257	242.81
426.717	256.81
427.177	227.81
427.637	244.81
428.097	241.81
428.556	241.81
429.016	279.81
429.476	279.81
429.936	268.81
430.396	259.81
430.856	271.81
431.315	267.81
431.775	284.81
432.235	312.81
432.694	304.81
433.154	277.81
433.614	288.81
434.073	271.81
434.533	247.81
434.993	251.81
435.452	258.81
435.912	248.81
436.371	245.81
436.83	248.81
437.29	253.81
437.749	255.81
438.209	245.81
438.668	242.81
439.127	227.81
439.587	235.81
440.046	233.81
440.505	234.81
440.964	230.81
441.424	249.81
441.883	257.81
442.342	214.81
442.801	221.81
443.26	232.81
443.719	235.81
444.178	233.81
444.637	244.81
445.096	237.81
445.555	214.81
446.014	231.81
446.473	218.81
446.932	238.81
447.391	233.81
447.849	239.81
448.308	222.81
448.767	233.81
449.226	265.81
449.685	255.81
450.143	242.81
450.602	263.81
451.061	243.81
451.519	243.81
451.978	230.81
452.436	244.81
452.895	249.81
453.353	260.81
453.812	241.81
454.27	253.81
454.729	225.81
455.187	239.81
455.646	246.81
456.104	266.81
456.562	241.81
457.021	259.81
457.479	215.81
457.937	227.81
458.395	231.81
458.854	236.81
459.312	257.81
459.77	249.81
460.228	212.81
460.686	245.81
461.144	263.81
461.602	265.81
462.06	219.81
462.518	269.81
462.976	251.81
463.434	254.81
463.892	276.81
464.35	250.81
464.808	246.81
465.266	250.81
465.724	279.81
466.181	281.81
466.639	259.81
467.097	253.81
467.555	266.81
468.012	282.81
468.47	288.81
468.928	283.81
469.385	268.81
469.843	295.81
470.3	295.81
470.758	286.81
471.215	308.81
471.673	301.81
472.13	305.81
472.588	286.81
473.045	322.81
473.503	309.81
473.96	321.81
474.417	315.81
474.875	328.81
475.332	370.81
475.789	369.81
476.246	341.81
476.704	381.81
477.161	394.81
477.618	372.81
478.075	412.81
478.532	429.81
478.989	462.81
479.446	482.81
479.903	533.81
480.36	577.81
480.817	601.81
481.274	666.81
481.731	721.81
482.188	773.81
482.645	835.81
483.102	857.81
483.558	943.81
484.015	960.81
484.472	1007.81
484.929	993.81
485.385	929.81
485.842	933.81
486.299	903.81
486.755	814.81
487.212	720.81
487.668	638.81
488.125	583.81
488.582	582.81
489.038	543.81
489.494	504.81
489.951	489.81
490.407	480.81
490.864	503.81
491.32	483.81
491.776	466.81
492.233	447.81
492.689	453.81
493.145	454.81
493.602	474.81
494.058	467.81
494.514	478.81
494.97	469.81
495.426	455.81
495.882	481.81
496.338	499.81
496.794	509.81
497.251	501.81
497.707	490.81
498.163	541.81
498.618	513.81
499.074	507.81
499.53	527.81
499.986	517.81
500.442	543.81
500.898	522.81
501.354	537.81
501.809	523.81
502.265	520.81
502.721	555.81
503.177	598.81
503.632	560.81
504.088	535.81
504.543	579.81
504.999	574.81
505.455	519.81
505.91	483.81
506.366	449.81
506.821	489.81
507.277	447.81
507.732	467.81
508.187	485.81
508.643	493.81
509.098	446.81
509.553	464.81
510.009	493.81
510.464	482.81
510.919	492.81
511.375	518.81
511.83	503.81
512.285	508.81
512.74	521.81
513.195	543.81
513.65	522.81
514.105	552.81
514.56	545.81
515.015	561.81
515.47	568.81
515.925	569.81
516.38	565.81
516.835	551.81
517.29	591.81
517.745	583.81
518.2	548.81
518.655	591.81
519.109	558.81
519.564	537.81
520.019	552.81
520.474	562.81
520.928	511.81
521.383	545.81
521.838	532.81
522.292	522.81
522.747	505.81
523.201	507.81
523.656	525.81
524.11	517.81
524.565	516.81
525.019	493.81
525.474	530.81
525.928	534.81
526.382	529.81
526.837	491.81
527.291	522.81
527.745	515.81
528.2	521.81
528.654	477.81
529.108	485.81
529.562	537.81
530.016	508.81
530.47	489.81
530.925	514.81
531.379	485.81
531.833	507.81
532.287	502.81
532.741	513.81
533.195	499.81
533.649	513.81
534.103	492.81
534.556	503.81
535.01	495.81
535.464	487.81
535.918	498.81
536.372	503.81
536.826	515.81
537.279	483.81
537.733	519.81
538.187	509.81
538.64	503.81
539.094	506.81
539.548	538.81
540.001	543.81
540.455	523.81
540.908	525.81
541.362	542.81
541.815	538.81
542.269	543.81
542.722	542.81
543.175	516.81
543.629	540.81
544.082	535.81
544.536	547.81
544.989	546.81
545.442	539.81
545.895	567.81
546.349	539.81
546.802	540.81
547.255	562.81
547.708	551.81
548.161	527.81
548.614	568.81
549.067	565.81
549.52	553.81
549.973	551.81
550.426	564.81
550.879	541.81
551.332	539.81
551.785	542.81
552.238	578.81
552.691	571.81
553.144	578.81
553.596	549.81
554.049	601.81
554.502	598.81
554.955	582.81
555.407	590.81
555.86	611.81
556.313	606.81
556.765	599.81
557.218	591.81
557.67	595.81
558.123	593.81
558.576	569.81
559.028	570.81
559.48	600.81
559.933	599.81
560.385	570.81
560.838	549.81
561.29	519.81
561.742	546.81
562.195	542.81
562.647	525.81
563.099	528.81
563.551	527.81
564.004	518.81
564.456	524.81
564.908	552.81
565.36	543.81
565.812	500.81
566.264	493.81
566.716	481.81
567.168	492.81
567.62	493.81
568.072	478.81
568.524	478.81
568.976	460.81
569.428	473.81
569.88	473.81
570.332	481.81
570.784	469.81
571.235	485.81
571.687	488.81
572.139	488.81
572.59	494.81
573.042	495.81
573.494	479.81
573.945	466.81
574.397	449.81
574.849	464.81
575.3	505.81
575.752	455.81
576.203	458.81
576.655	465.81
577.106	447.81
577.557	467.81
578.009	461.81
578.46	457.81
578.912	438.81
579.363	483.81
579.814	462.81
580.265	469.81
580.717	467.81
581.168	461.81
581.619	467.81
582.07	473.81
582.521	471.81
582.972	474.81
583.423	474.81
583.875	474.81
584.326	470.81
584.777	539.81
585.227	583.81
585.678	623.81
586.129	666.81
586.58	679.81
587.031	701.81
587.482	735.81
587.933	924.81
588.384	857.81
588.834	689.81
589.285	525.81
589.736	513.81
590.186	533.81
590.637	520.81
591.088	513.81
591.538	505.81
591.989	497.81
592.439	491.81
592.89	505.81
593.34	487.81
593.791	517.81
594.241	515.81
594.692	493.81
595.142	494.81
595.593	459.81
596.043	495.81
596.493	515.81
596.943	520.81
597.394	504.81
597.844	489.81
598.294	489.81
598.744	496.81
599.195	524.81
599.645	553.81
600.095	593.81
600.545	632.81
600.995	615.81
601.445	637.81
601.895	679.81
602.345	673.81
602.795	693.81
603.245	637.81
603.695	609.81
604.145	602.81
604.594	589.81
605.044	545.81
605.494	494.81
605.944	487.81
606.393	492.81
606.843	473.81
607.293	459.81
607.743	486.81
608.192	489.81
608.642	490.81
609.091	472.81
609.541	497.81
609.99	511.81
610.44	459.81
610.889	489.81
611.339	468.81
611.788	472.81
612.238	455.81
612.687	472.81
613.136	492.81
613.586	493.81
614.035	481.81
614.484	530.81
614.933	496.81
615.383	488.81
615.832	480.81
616.281	465.81
616.73	463.81
617.179	455.81
617.628	439.81
618.077	425.81
618.526	420.81
618.975	425.81
619.424	393.81
619.873	435.81
620.322	427.81
620.771	432.81
621.22	421.81
621.669	413.81
622.118	391.81
622.567	392.81
623.015	413.81
623.464	387.81
623.913	390.81
624.361	372.81
624.81	385.81
625.259	394.81
625.707	393.81
626.156	362.81
626.604	385.81
627.053	381.81
627.501	398.81
627.95	412.81
628.398	399.81
628.847	363.81
629.295	378.81
629.744	384.81
630.192	398.81
630.64	425.81
631.089	465.81
631.537	502.81
631.985	507.81
632.433	495.81
632.881	503.81
633.33	565.81
633.778	703.81
634.226	491.81
634.674	433.81
635.122	443.81
635.57	423.81
636.018	487.81
636.466	447.81
636.914	391.81
637.362	396.81
637.81	390.81
638.258	395.81
638.705	396.81
639.153	428.81
639.601	424.81
640.049	401.81
640.497	418.81
640.944	413.81
641.392	425.81
641.84	403.81
642.287	364.81
642.735	402.81
643.182	397.81
643.63	387.81
644.078	384.81
644.525	395.81
644.973	399.81
645.42	401.81
645.867	385.81
646.315	409.81
646.762	422.81
647.21	439.81
647.657	465.81
648.104	456.81
648.551	473.81
648.999	512.81
649.446	538.81
649.893	595.81
650.34	699.81
650.787	781.81
651.234	1042.81
651.682	1298.81
652.129	1839.81
652.576	2667.81
653.023	3689.81
653.47	4569.81
653.917	5083.81
654.363	5394.81
654.81	5753.81
655.257	6000.81
655.704	4425.81
656.151	2666.81
656.598	1733.81
657.044	1226.81
657.491	930.81
657.938	785.81
658.385	671.81
658.831	597.81
659.278	541.81
659.724	472.81
660.171	472.81
660.618	447.81
661.064	429.81
661.511	409.81
661.957	371.81
662.404	371.81
662.85	389.81
663.296	364.81
663.743	363.81
664.189	359.81
664.635	355.81
665.082	367.81
665.528	361.81
665.974	353.81
666.42	338.81
666.867	360.81
667.313	349.81
667.759	385.81
668.205	371.81
668.651	396.81
669.097	351.81
669.543	382.81
669.989	390.81
670.435	342.81
670.881	340.81
671.327	343.81
671.773	374.81
672.219	385.81
672.665	372.81
673.11	393.81
673.556	393.81
674.002	404.81
674.448	426.81
674.893	392.81
675.339	331.81
675.785	322.81
676.23	299.81
676.676	290.81
677.122	288.81
677.567	261.81
678.013	294.81
678.458	265.81
678.904	275.81
679.349	287.81
679.794	285.81
680.24	273.81
680.685	251.81
681.131	271.81
681.576	278.81
682.021	292.81
682.466	272.81
682.912	287.81
683.357	272.81
683.802	281.81
684.247	309.81
684.692	319.81
685.137	351.81
685.583	365.81
686.028	363.81
686.473	355.81
686.918	306.81
687.363	272.81
687.807	281.81
688.252	255.81
688.697	261.81
689.142	285.81
689.587	266.81
690.032	258.81
690.477	269.81
690.921	254.81
691.366	297.81
691.811	317.81
692.255	322.81
692.7	340.81
693.145	404.81
693.589	576.81
694.034	738.81
694.478	873.81
694.923	817.81
695.367	982.81
695.812	843.81
696.256	407.81
696.701	297.81
697.145	260.81
697.59	264.81
698.034	259.81
698.478	258.81
698.922	240.81
699.367	249.81
699.811	249.81
700.255	270.81
700.699	310.81
701.143	308.81
701.588	326.81
702.032	337.81
702.476	353.81
702.92	375.81
703.364	375.81
703.808	552.81
704.252	727.81
704.696	813.81
705.14	757.81
705.584	943.81
706.027	719.81
706.471	386.81
706.915	285.81
707.359	273.81
707.803	258.81
708.246	253.81
708.69	250.81
709.134	257.81
709.577	261.81
710.021	248.81
710.465	256.81
710.908	251.81
711.352	226.81
711.795	278.81
712.239	270.81
712.682	325.81
713.126	297.81
713.569	322.81
714.012	271.81
714.456	253.81
714.899	240.81
715.342	249.81
715.786	223.81
716.229	216.81
716.672	225.81
717.115	224.81
717.558	219.81
718.002	219.81
718.445	231.81
718.888	253.81
719.331	232.81
719.774	237.81
720.217	233.81
720.66	233.81
721.103	218.81
721.546	203.81
721.989	237.81
722.432	185.81
722.874	207.81
723.317	222.81
723.76	224.81
724.203	249.81
724.645	275.81
725.088	357.81
725.531	351.81
725.974	339.81
726.416	353.81
726.859	258.81
727.301	220.81
727.744	220.81
728.187	211.81
728.629	209.81
729.071	222.81
729.514	209.81
729.956	237.81
730.399	238.81
730.841	240.81
731.283	216.81
731.726	226.81
732.168	214.81
732.61	243.81
733.053	221.81
733.495	240.81
733.937	265.81
734.379	307.81
734.821	332.81
735.263	462.81
735.705	701.81
736.148	1165.81
736.59	1282.81
737.032	1212.81
737.474	1315.81
737.916	621.81
738.357	349.81
738.799	254.81
739.241	251.81
739.683	237.81
740.125	256.81
740.567	260.81
741.008	257.81
741.45	258.81
741.892	246.81
742.334	254.81
742.775	249.81
743.217	257.81
743.658	238.81
744.1	245.81
744.542	225.81
744.983	263.81
745.425	263.81
745.866	276.81
746.307	255.81
746.749	258.81
747.19	300.81
747.632	449.81
748.073	805.81
748.514	1165.81
748.956	1412.81
749.397	1881.81
749.838	1517.81
750.279	1267.81
750.72	921.81
751.162	456.81
751.603	271.81
752.044	219.81
752.485	213.81
752.926	184.81
753.367	180.81
753.808	192.81
754.249	196.81
754.69	163.81
755.131	191.81
755.572	189.81
756.013	198.81
756.453	172.81
756.894	186.81
