Data from 20170802-ORNL-NYSim-Air_HRD10391_10-38-41-667.txt Node
Date: Wed Aug 02 10:38:41 EDT 2017
User: Ender
Spectrometer: HR+D1039
Trigger mode: 0
Integration Time (sec): 1.100000E-3
Scans to average: 1
Electric dark correction enabled: true
Nonlinearity correction enabled: false
Boxcar width: 0
XAxis mode: Wavelengths
Number of Pixels in Spectrum: 2048
>>>>>Begin Spectral Data<<<<<
187.836	-16.38
188.309	-16.38
188.782	-16.38
189.255	-9.38
189.728	-10.38
190.201	-3.38
190.674	2.62
191.147	-10.38
191.619	-15.38
192.092	-11.38
192.565	8.62
193.038	5.62
193.511	-18.38
193.984	10.62
194.456	6.62
194.929	19.62
195.402	22.62
195.874	18.62
196.347	19.62
196.82	20.62
197.292	32.62
197.765	26.62
198.237	51.62
198.71	40.62
199.182	41.62
199.655	53.62
200.127	27.62
200.6	54.62
201.072	62.62
201.544	57.62
202.017	64.62
202.489	75.62
202.961	69.62
203.433	80.62
203.906	75.62
204.378	71.62
204.85	75.62
205.322	70.62
205.794	87.62
206.266	64.62
206.739	81.62
207.211	80.62
207.683	63.62
208.155	94.62
208.627	102.62
209.099	83.62
209.57	81.62
210.042	96.62
210.514	85.62
210.986	88.62
211.458	89.62
211.93	84.62
212.402	88.62
212.873	99.62
213.345	83.62
213.817	76.62
214.288	80.62
214.76	81.62
215.232	88.62
215.703	68.62
216.175	94.62
216.646	82.62
217.118	79.62
217.589	98.62
218.061	70.62
218.532	75.62
219.004	83.62
219.475	80.62
219.946	92.62
220.418	87.62
220.889	83.62
221.36	99.62
221.832	84.62
222.303	87.62
222.774	78.62
223.245	87.62
223.717	72.62
224.188	74.62
224.659	84.62
225.13	80.62
225.601	76.62
226.072	87.62
226.543	94.62
227.014	85.62
227.485	73.62
227.956	72.62
228.427	75.62
228.898	72.62
229.369	74.62
229.839	71.62
230.31	81.62
230.781	83.62
231.252	76.62
231.722	82.62
232.193	77.62
232.664	79.62
233.135	87.62
233.605	89.62
234.076	81.62
234.546	90.62
235.017	98.62
235.487	84.62
235.958	73.62
236.428	93.62
236.899	94.62
237.369	90.62
237.84	88.62
238.31	87.62
238.78	86.62
239.251	88.62
239.721	104.62
240.191	96.62
240.662	98.62
241.132	98.62
241.602	57.62
242.072	64.62
242.542	90.62
243.013	85.62
243.483	95.62
243.953	86.62
244.423	79.62
244.893	88.62
245.363	80.62
245.833	91.62
246.303	100.62
246.773	82.62
247.243	91.62
247.712	84.62
248.182	76.62
248.652	99.62
249.122	111.62
249.592	102.62
250.061	120.62
250.531	150.62
251.001	129.62
251.471	120.62
251.94	106.62
252.41	102.62
252.879	90.62
253.349	95.62
253.818	88.62
254.288	89.62
254.757	97.62
255.227	100.62
255.696	103.62
256.166	72.62
256.635	89.62
257.105	91.62
257.574	99.62
258.043	102.62
258.513	111.62
258.982	117.62
259.451	98.62
259.92	104.62
260.389	95.62
260.859	104.62
261.328	98.62
261.797	89.62
262.266	113.62
262.735	95.62
263.204	81.62
263.673	94.62
264.142	84.62
264.611	100.62
265.08	102.62
265.549	81.62
266.018	92.62
266.487	96.62
266.955	101.62
267.424	90.62
267.893	84.62
268.362	99.62
268.83	92.62
269.299	77.62
269.768	91.62
270.236	103.62
270.705	104.62
271.174	101.62
271.642	95.62
272.111	116.62
272.579	121.62
273.048	103.62
273.516	124.62
273.985	124.62
274.453	123.62
274.922	104.62
275.39	99.62
275.858	96.62
276.327	88.62
276.795	116.62
277.263	100.62
277.731	91.62
278.2	94.62
278.668	114.62
279.136	110.62
279.604	97.62
280.072	94.62
280.54	88.62
281.008	76.62
281.477	87.62
281.945	91.62
282.413	104.62
282.881	115.62
283.348	94.62
283.816	83.62
284.284	104.62
284.752	102.62
285.22	92.62
285.688	96.62
286.156	99.62
286.623	133.62
287.091	208.62
287.559	158.62
288.026	103.62
288.494	99.62
288.962	82.62
289.429	100.62
289.897	103.62
290.364	94.62
290.832	93.62
291.3	81.62
291.767	96.62
292.234	97.62
292.702	99.62
293.169	95.62
293.637	97.62
294.104	98.62
294.571	104.62
295.039	114.62
295.506	112.62
295.973	112.62
296.44	102.62
296.908	106.62
297.375	106.62
297.842	89.62
298.309	86.62
298.776	93.62
299.243	108.62
299.71	105.62
300.177	104.62
300.644	98.62
301.111	107.62
301.578	91.62
302.045	94.62
302.512	98.62
302.979	100.62
303.446	93.62
303.913	116.62
304.379	123.62
304.846	110.62
305.313	124.62
305.78	118.62
306.246	106.62
306.713	126.62
307.18	120.62
307.646	109.62
308.113	125.62
308.579	103.62
309.046	107.62
309.512	100.62
309.979	118.62
310.445	106.62
310.912	96.62
311.378	97.62
311.845	105.62
312.311	99.62
312.777	110.62
313.244	100.62
313.71	104.62
314.176	100.62
314.642	122.62
315.109	114.62
315.575	113.62
316.041	112.62
316.507	126.62
316.973	118.62
317.439	114.62
317.905	106.62
318.371	115.62
318.837	112.62
319.303	118.62
319.769	115.62
320.235	126.62
320.701	134.62
321.167	116.62
321.633	128.62
322.099	171.62
322.564	169.62
323.03	151.62
323.496	147.62
323.962	139.62
324.427	121.62
324.893	120.62
325.359	114.62
325.824	110.62
326.29	119.62
326.755	107.62
327.221	140.62
327.686	131.62
328.152	116.62
328.617	110.62
329.083	116.62
329.548	119.62
330.014	127.62
330.479	127.62
330.944	132.62
331.41	143.62
331.875	126.62
332.34	146.62
332.805	145.62
333.271	162.62
333.736	201.62
334.201	189.62
334.666	143.62
335.131	165.62
335.596	161.62
336.061	163.62
336.526	158.62
336.991	155.62
337.456	156.62
337.921	138.62
338.386	149.62
338.851	127.62
339.316	122.62
339.781	126.62
340.246	119.62
340.711	112.62
341.175	123.62
341.64	112.62
342.105	120.62
342.569	130.62
343.034	129.62
343.499	128.62
343.963	125.62
344.428	120.62
344.893	122.62
345.357	131.62
345.822	124.62
346.286	128.62
346.751	155.62
347.215	139.62
347.679	141.62
348.144	142.62
348.608	140.62
349.073	138.62
349.537	130.62
350.001	141.62
350.465	143.62
350.93	150.62
351.394	116.62
351.858	140.62
352.322	142.62
352.786	132.62
353.25	149.62
353.715	150.62
354.179	151.62
354.643	150.62
355.107	147.62
355.571	140.62
356.035	159.62
356.498	159.62
356.962	162.62
357.426	161.62
357.89	146.62
358.354	149.62
358.818	142.62
359.281	157.62
359.745	139.62
360.209	157.62
360.673	156.62
361.136	145.62
361.6	136.62
362.064	140.62
362.527	157.62
362.991	155.62
363.454	144.62
363.918	139.62
364.381	155.62
364.845	150.62
365.308	153.62
365.772	159.62
366.235	144.62
366.698	140.62
367.162	190.62
367.625	198.62
368.088	156.62
368.552	150.62
369.015	150.62
369.478	127.62
369.941	163.62
370.404	164.62
370.867	174.62
371.331	174.62
371.794	166.62
372.257	181.62
372.72	188.62
373.183	194.62
373.646	186.62
374.109	197.62
374.572	202.62
375.035	232.62
375.497	193.62
375.96	162.62
376.423	161.62
376.886	152.62
377.349	157.62
377.811	188.62
378.274	165.62
378.737	180.62
379.199	167.62
379.662	181.62
380.125	170.62
380.587	208.62
381.05	195.62
381.512	206.62
381.975	186.62
382.437	182.62
382.9	205.62
383.362	214.62
383.825	209.62
384.287	236.62
384.75	259.62
385.212	217.62
385.674	186.62
386.136	194.62
386.599	195.62
387.061	209.62
387.523	186.62
387.985	218.62
388.447	199.62
388.91	221.62
389.372	262.62
389.834	243.62
390.296	228.62
390.758	206.62
391.22	224.62
391.682	242.62
392.144	352.62
392.606	321.62
393.068	235.62
393.529	219.62
393.991	211.62
394.453	222.62
394.915	218.62
395.377	256.62
395.838	276.62
396.3	239.62
396.762	194.62
397.224	194.62
397.685	192.62
398.147	193.62
398.608	186.62
399.07	178.62
399.531	199.62
399.993	188.62
400.454	190.62
400.916	184.62
401.377	207.62
401.839	202.62
402.3	191.62
402.762	208.62
403.223	207.62
403.684	232.62
404.145	206.62
404.607	207.62
405.068	196.62
405.529	220.62
405.99	222.62
406.451	224.62
406.913	206.62
407.374	203.62
407.835	215.62
408.296	208.62
408.757	217.62
409.218	228.62
409.679	206.62
410.14	236.62
410.601	220.62
411.062	251.62
411.522	269.62
411.983	274.62
412.444	244.62
412.905	228.62
413.366	217.62
413.826	231.62
414.287	264.62
414.748	275.62
415.208	286.62
415.669	249.62
416.13	223.62
416.59	236.62
417.051	252.62
417.511	257.62
417.972	266.62
418.432	284.62
418.893	302.62
419.353	301.62
419.814	242.62
420.274	219.62
420.734	214.62
421.195	236.62
421.655	262.62
422.115	230.62
422.576	221.62
423.036	239.62
423.496	231.62
423.956	246.62
424.416	260.62
424.876	261.62
425.336	297.62
425.797	259.62
426.257	285.62
426.717	266.62
427.177	273.62
427.637	253.62
428.097	259.62
428.556	283.62
429.016	294.62
429.476	281.62
429.936	295.62
430.396	288.62
430.856	300.62
431.315	274.62
431.775	320.62
432.235	322.62
432.694	308.62
433.154	317.62
433.614	300.62
434.073	305.62
434.533	268.62
434.993	298.62
435.452	288.62
435.912	278.62
436.371	277.62
436.83	276.62
437.29	277.62
437.749	261.62
438.209	254.62
438.668	261.62
439.127	265.62
439.587	264.62
440.046	239.62
440.505	250.62
440.964	265.62
441.424	272.62
441.883	267.62
442.342	239.62
442.801	256.62
443.26	247.62
443.719	235.62
444.178	251.62
444.637	254.62
445.096	240.62
445.555	260.62
446.014	251.62
446.473	262.62
446.932	256.62
447.391	249.62
447.849	251.62
448.308	244.62
448.767	255.62
449.226	274.62
449.685	252.62
450.143	282.62
450.602	254.62
451.061	264.62
451.519	258.62
451.978	267.62
452.436	295.62
452.895	262.62
453.353	258.62
453.812	288.62
454.27	264.62
454.729	263.62
455.187	234.62
455.646	263.62
456.104	257.62
456.562	243.62
457.021	255.62
457.479	239.62
457.937	260.62
458.395	266.62
458.854	251.62
459.312	258.62
459.77	274.62
460.228	264.62
460.686	264.62
461.144	270.62
461.602	252.62
462.06	267.62
462.518	270.62
462.976	249.62
463.434	264.62
463.892	258.62
464.35	265.62
464.808	288.62
465.266	273.62
465.724	282.62
466.181	279.62
466.639	286.62
467.097	298.62
467.555	292.62
468.012	301.62
468.47	305.62
468.928	315.62
469.385	303.62
469.843	315.62
470.3	314.62
470.758	306.62
471.215	326.62
471.673	334.62
472.13	350.62
472.588	340.62
473.045	352.62
473.503	344.62
473.96	356.62
474.417	347.62
474.875	364.62
475.332	367.62
475.789	423.62
476.246	397.62
476.704	395.62
477.161	424.62
477.618	430.62
478.075	467.62
478.532	483.62
478.989	525.62
479.446	561.62
479.903	596.62
480.36	614.62
480.817	685.62
481.274	698.62
481.731	810.62
482.188	843.62
482.645	900.62
483.102	932.62
483.558	1045.62
484.015	1092.62
484.472	1114.62
484.929	1072.62
485.385	994.62
485.842	988.62
486.299	929.62
486.755	849.62
487.212	781.62
487.668	691.62
488.125	656.62
488.582	590.62
489.038	586.62
489.494	570.62
489.951	560.62
490.407	536.62
490.864	527.62
491.32	490.62
491.776	496.62
492.233	505.62
492.689	524.62
493.145	481.62
493.602	487.62
494.058	505.62
494.514	524.62
494.97	486.62
495.426	545.62
495.882	515.62
496.338	527.62
496.794	534.62
497.251	576.62
497.707	543.62
498.163	537.62
498.618	536.62
499.074	570.62
499.53	551.62
499.986	566.62
500.442	580.62
500.898	588.62
501.354	551.62
501.809	577.62
502.265	585.62
502.721	622.62
503.177	608.62
503.632	581.62
504.088	584.62
504.543	640.62
504.999	599.62
505.455	558.62
505.91	538.62
506.366	494.62
506.821	531.62
507.277	521.62
507.732	499.62
508.187	502.62
508.643	508.62
509.098	517.62
509.553	532.62
510.009	554.62
510.464	523.62
510.919	533.62
511.375	542.62
511.83	556.62
512.285	585.62
512.74	578.62
513.195	574.62
513.65	578.62
514.105	608.62
514.56	595.62
515.015	585.62
515.47	594.62
515.925	615.62
516.38	616.62
516.835	619.62
517.29	601.62
517.745	611.62
518.2	612.62
518.655	609.62
519.109	597.62
519.564	552.62
520.019	546.62
520.474	554.62
520.928	563.62
521.383	563.62
521.838	589.62
522.292	551.62
522.747	558.62
523.201	532.62
523.656	567.62
524.11	534.62
524.565	576.62
525.019	555.62
525.474	563.62
525.928	537.62
526.382	554.62
526.837	559.62
527.291	569.62
527.745	545.62
528.2	542.62
528.654	547.62
529.108	546.62
529.562	531.62
530.016	555.62
530.47	553.62
530.925	522.62
531.379	546.62
531.833	534.62
532.287	539.62
532.741	542.62
533.195	555.62
533.649	562.62
534.103	543.62
534.556	532.62
535.01	545.62
535.464	542.62
535.918	556.62
536.372	548.62
536.826	542.62
537.279	565.62
537.733	541.62
538.187	531.62
538.64	565.62
539.094	536.62
539.548	551.62
540.001	550.62
540.455	552.62
540.908	545.62
541.362	561.62
541.815	541.62
542.269	583.62
542.722	567.62
543.175	587.62
543.629	599.62
544.082	609.62
544.536	593.62
544.989	586.62
545.442	594.62
545.895	623.62
546.349	604.62
546.802	608.62
547.255	616.62
547.708	610.62
548.161	598.62
548.614	598.62
549.067	614.62
549.52	617.62
549.973	612.62
550.426	604.62
550.879	578.62
551.332	593.62
551.785	620.62
552.238	584.62
552.691	614.62
553.144	608.62
553.596	623.62
554.049	618.62
554.502	632.62
554.955	647.62
555.407	651.62
555.86	641.62
556.313	659.62
556.765	651.62
557.218	620.62
557.67	620.62
558.123	640.62
558.576	628.62
559.028	622.62
559.48	600.62
559.933	637.62
560.385	619.62
560.838	601.62
561.29	593.62
561.742	584.62
562.195	572.62
562.647	576.62
563.099	584.62
563.551	573.62
564.004	600.62
564.456	575.62
564.908	564.62
565.36	546.62
565.812	542.62
566.264	548.62
566.716	539.62
567.168	538.62
567.62	552.62
568.072	554.62
568.524	519.62
568.976	515.62
569.428	505.62
569.88	508.62
570.332	518.62
570.784	502.62
571.235	507.62
571.687	544.62
572.139	518.62
572.59	520.62
573.042	540.62
573.494	498.62
573.945	518.62
574.397	501.62
574.849	481.62
575.3	500.62
575.752	477.62
576.203	510.62
576.655	506.62
577.106	493.62
577.557	506.62
578.009	474.62
578.46	503.62
578.912	479.62
579.363	493.62
579.814	494.62
580.265	496.62
580.717	485.62
581.168	517.62
581.619	500.62
582.07	490.62
582.521	498.62
582.972	502.62
583.423	504.62
583.875	507.62
584.326	508.62
584.777	566.62
585.227	619.62
585.678	685.62
586.129	682.62
586.58	703.62
587.031	772.62
587.482	787.62
587.933	991.62
588.384	884.62
588.834	742.62
589.285	554.62
589.736	574.62
590.186	563.62
590.637	572.62
591.088	527.62
591.538	529.62
591.989	530.62
592.439	511.62
592.89	508.62
593.34	541.62
593.791	555.62
594.241	517.62
594.692	511.62
595.142	522.62
595.593	536.62
596.043	544.62
596.493	546.62
596.943	539.62
597.394	519.62
597.844	541.62
598.294	530.62
598.744	540.62
599.195	562.62
599.645	605.62
600.095	628.62
600.545	635.62
600.995	670.62
601.445	714.62
601.895	735.62
602.345	756.62
602.795	733.62
603.245	709.62
603.695	700.62
604.145	618.62
604.594	621.62
605.044	578.62
605.494	548.62
605.944	501.62
606.393	524.62
606.843	521.62
607.293	519.62
607.743	519.62
608.192	543.62
608.642	558.62
609.091	511.62
609.541	515.62
609.99	520.62
610.44	502.62
610.889	541.62
611.339	516.62
611.788	494.62
612.238	506.62
612.687	522.62
613.136	522.62
613.586	512.62
614.035	507.62
614.484	534.62
614.933	531.62
615.383	542.62
615.832	515.62
616.281	499.62
616.73	504.62
617.179	501.62
617.628	466.62
618.077	482.62
618.526	444.62
618.975	458.62
619.424	428.62
619.873	444.62
620.322	452.62
620.771	456.62
621.22	428.62
621.669	455.62
622.118	440.62
622.567	452.62
623.015	424.62
623.464	436.62
623.913	436.62
624.361	399.62
624.81	415.62
625.259	412.62
625.707	402.62
626.156	414.62
626.604	423.62
627.053	412.62
627.501	410.62
627.95	424.62
628.398	423.62
628.847	431.62
629.295	414.62
629.744	403.62
630.192	435.62
630.64	453.62
631.089	501.62
631.537	517.62
631.985	538.62
632.433	530.62
632.881	514.62
633.33	559.62
633.778	690.62
634.226	502.62
634.674	463.62
635.122	477.62
635.57	458.62
636.018	541.62
636.466	475.62
636.914	416.62
637.362	408.62
637.81	392.62
638.258	417.62
638.705	427.62
639.153	442.62
639.601	431.62
640.049	435.62
640.497	446.62
640.944	483.62
641.392	446.62
641.84	412.62
642.287	409.62
642.735	427.62
643.182	422.62
643.63	397.62
644.078	391.62
644.525	394.62
644.973	424.62
645.42	416.62
645.867	425.62
646.315	452.62
646.762	466.62
647.21	472.62
647.657	506.62
648.104	480.62
648.551	496.62
648.999	562.62
649.446	578.62
649.893	633.62
650.34	729.62
650.787	851.62
651.234	1105.62
651.682	1437.62
652.129	1975.62
652.576	2847.62
653.023	4000.62
653.47	4990.62
653.917	5518.62
654.363	5819.62
654.81	6261.62
655.257	6502.62
655.704	4874.62
656.151	2840.62
656.598	1820.62
657.044	1312.62
657.491	1031.62
657.938	846.62
658.385	694.62
658.831	631.62
659.278	560.62
659.724	528.62
660.171	480.62
660.618	458.62
661.064	440.62
661.511	423.62
661.957	397.62
662.404	378.62
662.85	390.62
663.296	389.62
663.743	394.62
664.189	401.62
664.635	380.62
665.082	376.62
665.528	373.62
665.974	364.62
666.42	354.62
666.867	363.62
667.313	384.62
667.759	370.62
668.205	400.62
668.651	404.62
669.097	417.62
669.543	443.62
669.989	416.62
670.435	349.62
670.881	337.62
671.327	347.62
671.773	350.62
672.219	398.62
672.665	421.62
673.11	444.62
673.556	402.62
674.002	436.62
674.448	435.62
674.893	400.62
675.339	367.62
675.785	314.62
676.23	338.62
676.676	318.62
677.122	312.62
677.567	314.62
678.013	293.62
678.458	288.62
678.904	294.62
679.349	288.62
679.794	274.62
680.24	278.62
680.685	270.62
681.131	271.62
681.576	262.62
682.021	296.62
682.466	290.62
682.912	291.62
683.357	299.62
683.802	305.62
684.247	315.62
684.692	360.62
685.137	365.62
685.583	349.62
686.028	400.62
686.473	376.62
686.918	339.62
687.363	319.62
687.807	283.62
688.252	290.62
688.697	290.62
689.142	284.62
689.587	276.62
690.032	283.62
690.477	302.62
690.921	292.62
691.366	295.62
691.811	319.62
692.255	347.62
692.7	370.62
693.145	424.62
693.589	646.62
694.034	848.62
694.478	924.62
694.923	836.62
695.367	1032.62
695.812	952.62
696.256	431.62
696.701	311.62
697.145	266.62
697.59	259.62
698.034	264.62
698.478	270.62
698.922	250.62
699.367	276.62
699.811	293.62
700.255	276.62
700.699	318.62
701.143	317.62
701.588	354.62
702.032	363.62
702.476	367.62
702.92	386.62
703.364	410.62
703.808	568.62
704.252	785.62
704.696	904.62
705.14	798.62
705.584	1014.62
706.027	826.62
706.471	405.62
706.915	326.62
707.359	286.62
707.803	279.62
708.246	282.62
708.69	253.62
709.134	267.62
709.577	259.62
710.021	278.62
710.465	267.62
710.908	246.62
711.352	261.62
711.795	288.62
712.239	318.62
712.682	296.62
713.126	295.62
713.569	326.62
714.012	301.62
714.456	263.62
714.899	262.62
715.342	247.62
715.786	227.62
716.229	237.62
716.672	220.62
717.115	231.62
717.558	221.62
718.002	240.62
718.445	252.62
718.888	254.62
719.331	252.62
719.774	250.62
720.217	253.62
720.66	233.62
721.103	257.62
721.546	210.62
721.989	223.62
722.432	229.62
722.874	213.62
723.317	206.62
723.76	228.62
724.203	220.62
724.645	306.62
725.088	364.62
725.531	377.62
725.974	351.62
726.416	397.62
726.859	286.62
727.301	236.62
727.744	231.62
728.187	217.62
728.629	211.62
729.071	208.62
729.514	250.62
729.956	243.62
730.399	260.62
730.841	242.62
731.283	238.62
731.726	238.62
732.168	216.62
732.61	225.62
733.053	260.62
733.495	256.62
733.937	274.62
734.379	315.62
734.821	356.62
735.263	469.62
735.705	776.62
736.148	1223.62
736.59	1426.62
737.032	1329.62
737.474	1360.62
737.916	705.62
738.357	374.62
738.799	284.62
739.241	284.62
739.683	234.62
740.125	250.62
740.567	275.62
741.008	246.62
741.45	270.62
741.892	281.62
742.334	284.62
742.775	295.62
743.217	293.62
743.658	263.62
744.1	228.62
744.542	249.62
744.983	264.62
745.425	297.62
745.866	304.62
746.307	271.62
746.749	254.62
747.19	306.62
747.632	442.62
748.073	858.62
748.514	1277.62
748.956	1544.62
749.397	2072.62
749.838	1669.62
750.279	1380.62
750.72	1024.62
751.162	473.62
751.603	288.62
752.044	248.62
752.485	221.62
752.926	202.62
753.367	182.62
753.808	199.62
754.249	196.62
754.69	197.62
755.131	185.62
755.572	194.62
756.013	188.62
