Data from 20170802-ORNL-NYSim-Air_HRD10391_10-37-53-649.txt Node
Date: Wed Aug 02 10:37:53 EDT 2017
User: Ender
Spectrometer: HR+D1039
Trigger mode: 0
Integration Time (sec): 1.100000E-3
Scans to average: 1
Electric dark correction enabled: true
Nonlinearity correction enabled: false
Boxcar width: 0
XAxis mode: Wavelengths
Number of Pixels in Spectrum: 2048
>>>>>Begin Spectral Data<<<<<
187.836	7.75
188.309	7.75
188.782	7.75
189.255	-5.25
189.728	0.75
190.201	1.75
190.674	-19.25
191.147	-15.25
191.619	-7.25
192.092	-8.25
192.565	5.75
193.038	-0.25
193.511	4.75
193.984	-6.25
194.456	-7.25
194.929	16.75
195.402	17.75
195.874	13.75
196.347	21.75
196.82	24.75
197.292	36.75
197.765	28.75
198.237	23.75
198.71	37.75
199.182	39.75
199.655	53.75
200.127	49.75
200.6	45.75
201.072	54.75
201.544	53.75
202.017	58.75
202.489	74.75
202.961	67.75
203.433	67.75
203.906	66.75
204.378	77.75
204.85	74.75
205.322	86.75
205.794	61.75
206.266	90.75
206.739	75.75
207.211	61.75
207.683	90.75
208.155	85.75
208.627	90.75
209.099	70.75
209.57	74.75
210.042	64.75
210.514	66.75
210.986	99.75
211.458	89.75
211.93	78.75
212.402	86.75
212.873	80.75
213.345	101.75
213.817	94.75
214.288	93.75
214.76	78.75
215.232	80.75
215.703	88.75
216.175	63.75
216.646	55.75
217.118	90.75
217.589	75.75
218.061	90.75
218.532	75.75
219.004	78.75
219.475	89.75
219.946	89.75
220.418	85.75
220.889	83.75
221.36	80.75
221.832	79.75
222.303	71.75
222.774	54.75
223.245	68.75
223.717	100.75
224.188	72.75
224.659	73.75
225.13	67.75
225.601	75.75
226.072	77.75
226.543	67.75
227.014	83.75
227.485	87.75
227.956	81.75
228.427	75.75
228.898	87.75
229.369	85.75
229.839	74.75
230.31	79.75
230.781	85.75
231.252	93.75
231.722	87.75
232.193	75.75
232.664	79.75
233.135	89.75
233.605	88.75
234.076	85.75
234.546	87.75
235.017	89.75
235.487	87.75
235.958	89.75
236.428	77.75
236.899	80.75
237.369	101.75
237.84	100.75
238.31	125.75
238.78	104.75
239.251	100.75
239.721	115.75
240.191	93.75
240.662	109.75
241.132	86.75
241.602	82.75
242.072	89.75
242.542	90.75
243.013	80.75
243.483	91.75
243.953	97.75
244.423	94.75
244.893	84.75
245.363	95.75
245.833	88.75
246.303	97.75
246.773	87.75
247.243	97.75
247.712	95.75
248.182	92.75
248.652	103.75
249.122	104.75
249.592	135.75
250.061	167.75
250.531	212.75
251.001	192.75
251.471	168.75
251.94	150.75
252.41	112.75
252.879	112.75
253.349	111.75
253.818	101.75
254.288	89.75
254.757	103.75
255.227	97.75
255.696	97.75
256.166	93.75
256.635	94.75
257.105	111.75
257.574	105.75
258.043	114.75
258.513	111.75
258.982	141.75
259.451	135.75
259.92	115.75
260.389	117.75
260.859	111.75
261.328	126.75
261.797	133.75
262.266	141.75
262.735	86.75
263.204	99.75
263.673	93.75
264.142	91.75
264.611	95.75
265.08	98.75
265.549	110.75
266.018	103.75
266.487	105.75
266.955	94.75
267.424	89.75
267.893	102.75
268.362	90.75
268.83	82.75
269.299	100.75
269.768	91.75
270.236	112.75
270.705	130.75
271.174	106.75
271.642	109.75
272.111	120.75
272.579	119.75
273.048	144.75
273.516	156.75
273.985	167.75
274.453	145.75
274.922	132.75
275.39	100.75
275.858	100.75
276.327	114.75
276.795	97.75
277.263	101.75
277.731	116.75
278.2	149.75
278.668	146.75
279.136	153.75
279.604	111.75
280.072	100.75
280.54	84.75
281.008	109.75
281.477	119.75
281.945	99.75
282.413	108.75
282.881	118.75
283.348	98.75
283.816	107.75
284.284	119.75
284.752	112.75
285.22	120.75
285.688	112.75
286.156	145.75
286.623	198.75
287.091	323.75
287.559	201.75
288.026	137.75
288.494	116.75
288.962	105.75
289.429	97.75
289.897	105.75
290.364	97.75
290.832	116.75
291.3	120.75
291.767	101.75
292.234	105.75
292.702	113.75
293.169	117.75
293.637	105.75
294.104	112.75
294.571	129.75
295.039	115.75
295.506	117.75
295.973	101.75
296.44	98.75
296.908	115.75
297.375	120.75
297.842	104.75
298.309	102.75
298.776	114.75
299.243	107.75
299.71	107.75
300.177	109.75
300.644	109.75
301.111	118.75
301.578	106.75
302.045	130.75
302.512	108.75
302.979	109.75
303.446	128.75
303.913	103.75
304.379	105.75
304.846	120.75
305.313	141.75
305.78	135.75
306.246	139.75
306.713	141.75
307.18	128.75
307.646	141.75
308.113	125.75
308.579	124.75
309.046	131.75
309.512	115.75
309.979	121.75
310.445	127.75
310.912	135.75
311.378	124.75
311.845	127.75
312.311	141.75
312.777	142.75
313.244	114.75
313.71	126.75
314.176	140.75
314.642	150.75
315.109	169.75
315.575	145.75
316.041	144.75
316.507	155.75
316.973	137.75
317.439	151.75
317.905	147.75
318.371	143.75
318.837	155.75
319.303	155.75
319.769	120.75
320.235	152.75
320.701	160.75
321.167	149.75
321.633	165.75
322.099	221.75
322.564	248.75
323.03	225.75
323.496	175.75
323.962	181.75
324.427	161.75
324.893	164.75
325.359	155.75
325.824	141.75
326.29	153.75
326.755	149.75
327.221	153.75
327.686	159.75
328.152	132.75
328.617	135.75
329.083	161.75
329.548	149.75
330.014	135.75
330.479	155.75
330.944	171.75
331.41	162.75
331.875	194.75
332.34	186.75
332.805	195.75
333.271	216.75
333.736	259.75
334.201	237.75
334.666	205.75
335.131	225.75
335.596	199.75
336.061	197.75
336.526	200.75
336.991	175.75
337.456	191.75
337.921	171.75
338.386	160.75
338.851	150.75
339.316	156.75
339.781	149.75
340.246	156.75
340.711	142.75
341.175	161.75
341.64	161.75
342.105	157.75
342.569	165.75
343.034	173.75
343.499	167.75
343.963	148.75
344.428	176.75
344.893	166.75
345.357	158.75
345.822	170.75
346.286	155.75
346.751	174.75
347.215	165.75
347.679	162.75
348.144	162.75
348.608	178.75
349.073	186.75
349.537	178.75
350.001	203.75
350.465	168.75
350.93	181.75
351.394	196.75
351.858	187.75
352.322	168.75
352.786	177.75
353.25	181.75
353.715	175.75
354.179	192.75
354.643	211.75
355.107	209.75
355.571	193.75
356.035	202.75
356.498	202.75
356.962	233.75
357.426	218.75
357.89	224.75
358.354	198.75
358.818	176.75
359.281	211.75
359.745	208.75
360.209	206.75
360.673	190.75
361.136	183.75
361.6	191.75
362.064	201.75
362.527	201.75
362.991	193.75
363.454	199.75
363.918	201.75
364.381	210.75
364.845	218.75
365.308	201.75
365.772	210.75
366.235	212.75
366.698	215.75
367.162	214.75
367.625	263.75
368.088	207.75
368.552	213.75
369.015	239.75
369.478	227.75
369.941	214.75
370.404	227.75
370.867	245.75
371.331	244.75
371.794	265.75
372.257	281.75
372.72	266.75
373.183	275.75
373.646	258.75
374.109	244.75
374.572	269.75
375.035	306.75
375.497	279.75
375.96	232.75
376.423	229.75
376.886	226.75
377.349	237.75
377.811	242.75
378.274	256.75
378.737	257.75
379.199	240.75
379.662	230.75
380.125	261.75
380.587	278.75
381.05	303.75
381.512	299.75
381.975	303.75
382.437	275.75
382.9	276.75
383.362	282.75
383.825	295.75
384.287	336.75
384.75	357.75
385.212	328.75
385.674	319.75
386.136	274.75
386.599	275.75
387.061	295.75
387.523	287.75
387.985	310.75
388.447	305.75
388.91	343.75
389.372	391.75
389.834	369.75
390.296	320.75
390.758	313.75
391.22	324.75
391.682	357.75
392.144	528.75
392.606	503.75
393.068	347.75
393.529	313.75
393.991	311.75
394.453	291.75
394.915	315.75
395.377	379.75
395.838	424.75
396.3	309.75
396.762	298.75
397.224	255.75
397.685	251.75
398.147	257.75
398.608	284.75
399.07	306.75
399.531	289.75
399.993	292.75
400.454	278.75
400.916	301.75
401.377	273.75
401.839	292.75
402.3	286.75
402.762	295.75
403.223	323.75
403.684	301.75
404.145	291.75
404.607	304.75
405.068	287.75
405.529	297.75
405.99	323.75
406.451	328.75
406.913	315.75
407.374	297.75
407.835	298.75
408.296	314.75
408.757	310.75
409.218	334.75
409.679	317.75
410.14	319.75
410.601	319.75
411.062	337.75
411.522	388.75
411.983	423.75
412.444	378.75
412.905	339.75
413.366	337.75
413.826	369.75
414.287	359.75
414.748	416.75
415.208	430.75
415.669	375.75
416.13	375.75
416.59	358.75
417.051	359.75
417.511	357.75
417.972	385.75
418.432	407.75
418.893	471.75
419.353	445.75
419.814	362.75
420.274	327.75
420.734	318.75
421.195	336.75
421.655	331.75
422.115	357.75
422.576	337.75
423.036	340.75
423.496	352.75
423.956	368.75
424.416	395.75
424.876	416.75
425.336	405.75
425.797	438.75
426.257	416.75
426.717	415.75
427.177	387.75
427.637	385.75
428.097	386.75
428.556	421.75
429.016	452.75
429.476	443.75
429.936	453.75
430.396	439.75
430.856	444.75
431.315	437.75
431.775	499.75
432.235	513.75
432.694	529.75
433.154	502.75
433.614	476.75
434.073	470.75
434.533	420.75
434.993	419.75
435.452	413.75
435.912	424.75
436.371	418.75
436.83	409.75
437.29	419.75
437.749	388.75
438.209	375.75
438.668	392.75
439.127	390.75
439.587	393.75
440.046	366.75
440.505	372.75
440.964	367.75
441.424	379.75
441.883	373.75
442.342	382.75
442.801	360.75
443.26	341.75
443.719	363.75
444.178	377.75
444.637	370.75
445.096	375.75
445.555	376.75
446.014	361.75
446.473	361.75
446.932	366.75
447.391	368.75
447.849	362.75
448.308	384.75
448.767	385.75
449.226	376.75
449.685	399.75
450.143	405.75
450.602	423.75
451.061	396.75
451.519	403.75
451.978	400.75
452.436	409.75
452.895	407.75
453.353	391.75
453.812	390.75
454.27	395.75
454.729	384.75
455.187	384.75
455.646	356.75
456.104	394.75
456.562	399.75
457.021	382.75
457.479	379.75
457.937	406.75
458.395	402.75
458.854	384.75
459.312	393.75
459.77	367.75
460.228	374.75
460.686	361.75
461.144	378.75
461.602	382.75
462.06	407.75
462.518	409.75
462.976	427.75
463.434	422.75
463.892	381.75
464.35	411.75
464.808	423.75
465.266	415.75
465.724	428.75
466.181	426.75
466.639	421.75
467.097	437.75
467.555	423.75
468.012	434.75
468.47	451.75
468.928	471.75
469.385	478.75
469.843	475.75
470.3	477.75
470.758	495.75
471.215	507.75
471.673	520.75
472.13	507.75
472.588	506.75
473.045	530.75
473.503	551.75
473.96	551.75
474.417	542.75
474.875	594.75
475.332	610.75
475.789	607.75
476.246	620.75
476.704	670.75
477.161	639.75
477.618	686.75
478.075	712.75
478.532	782.75
478.989	853.75
479.446	916.75
479.903	955.75
480.36	1051.75
480.817	1123.75
481.274	1228.75
481.731	1319.75
482.188	1445.75
482.645	1549.75
483.102	1650.75
483.558	1743.75
484.015	1827.75
484.472	1847.75
484.929	1834.75
485.385	1741.75
485.842	1662.75
486.299	1598.75
486.755	1453.75
487.212	1284.75
487.668	1198.75
488.125	1081.75
488.582	975.75
489.038	966.75
489.494	919.75
489.951	881.75
490.407	863.75
490.864	838.75
491.32	845.75
491.776	827.75
492.233	804.75
492.689	817.75
493.145	786.75
493.602	806.75
494.058	818.75
494.514	810.75
494.97	831.75
495.426	825.75
495.882	848.75
496.338	830.75
496.794	850.75
497.251	882.75
497.707	846.75
498.163	873.75
498.618	889.75
499.074	870.75
499.53	864.75
499.986	897.75
500.442	901.75
500.898	891.75
501.354	903.75
501.809	893.75
502.265	923.75
502.721	923.75
503.177	937.75
503.632	919.75
504.088	911.75
504.543	1008.75
504.999	954.75
505.455	885.75
505.91	824.75
506.366	813.75
506.821	825.75
507.277	820.75
507.732	830.75
508.187	799.75
508.643	826.75
509.098	832.75
509.553	857.75
510.009	848.75
510.464	869.75
510.919	867.75
511.375	885.75
511.83	877.75
512.285	895.75
512.74	909.75
513.195	916.75
513.65	928.75
514.105	951.75
514.56	1001.75
515.015	975.75
515.47	1017.75
515.925	1008.75
516.38	983.75
516.835	991.75
517.29	981.75
517.745	972.75
518.2	981.75
518.655	962.75
519.109	935.75
519.564	925.75
520.019	909.75
520.474	929.75
520.928	935.75
521.383	891.75
521.838	906.75
522.292	927.75
522.747	905.75
523.201	893.75
523.656	881.75
524.11	831.75
524.565	893.75
525.019	889.75
525.474	886.75
525.928	877.75
526.382	869.75
526.837	873.75
527.291	860.75
527.745	869.75
528.2	842.75
528.654	826.75
529.108	867.75
529.562	853.75
530.016	847.75
530.47	861.75
530.925	842.75
531.379	873.75
531.833	874.75
532.287	885.75
532.741	877.75
533.195	872.75
533.649	872.75
534.103	865.75
534.556	849.75
535.01	851.75
535.464	873.75
535.918	865.75
536.372	871.75
536.826	889.75
537.279	840.75
537.733	887.75
538.187	891.75
538.64	872.75
539.094	904.75
539.548	867.75
540.001	868.75
540.455	904.75
540.908	897.75
541.362	900.75
541.815	910.75
542.269	912.75
542.722	913.75
543.175	929.75
543.629	927.75
544.082	952.75
544.536	969.75
544.989	967.75
545.442	921.75
545.895	955.75
546.349	953.75
546.802	978.75
547.255	956.75
547.708	985.75
548.161	979.75
548.614	994.75
549.067	967.75
549.52	995.75
549.973	990.75
550.426	987.75
550.879	973.75
551.332	948.75
551.785	973.75
552.238	954.75
552.691	979.75
553.144	1012.75
553.596	985.75
554.049	1014.75
554.502	1013.75
554.955	1048.75
555.407	1036.75
555.86	1055.75
556.313	1039.75
556.765	1019.75
557.218	999.75
557.67	1003.75
558.123	1046.75
558.576	1008.75
559.028	997.75
559.48	1005.75
559.933	1023.75
560.385	1001.75
560.838	960.75
561.29	920.75
561.742	926.75
562.195	942.75
562.647	900.75
563.099	899.75
563.551	919.75
564.004	906.75
564.456	912.75
564.908	863.75
565.36	853.75
565.812	818.75
566.264	841.75
566.716	852.75
567.168	827.75
567.62	819.75
568.072	854.75
568.524	825.75
568.976	795.75
569.428	803.75
569.88	805.75
570.332	824.75
570.784	794.75
571.235	794.75
571.687	797.75
572.139	792.75
572.59	778.75
573.042	833.75
573.494	787.75
573.945	827.75
574.397	813.75
574.849	794.75
575.3	795.75
575.752	828.75
576.203	779.75
576.655	794.75
577.106	801.75
577.557	805.75
578.009	789.75
578.46	780.75
578.912	777.75
579.363	778.75
579.814	784.75
580.265	786.75
580.717	758.75
581.168	793.75
581.619	763.75
582.07	809.75
582.521	802.75
582.972	772.75
583.423	771.75
583.875	823.75
584.326	865.75
584.777	956.75
585.227	1089.75
585.678	1218.75
586.129	1255.75
586.58	1266.75
587.031	1371.75
587.482	1397.75
587.933	1784.75
588.384	1659.75
588.834	1293.75
589.285	924.75
589.736	870.75
590.186	889.75
590.637	876.75
591.088	865.75
591.538	877.75
591.989	805.75
592.439	838.75
592.89	817.75
593.34	823.75
593.791	851.75
594.241	847.75
594.692	825.75
595.142	830.75
595.593	831.75
596.043	811.75
596.493	855.75
596.943	812.75
597.394	869.75
597.844	823.75
598.294	821.75
598.744	866.75
599.195	885.75
599.645	936.75
600.095	1003.75
600.545	1039.75
600.995	1072.75
601.445	1118.75
601.895	1120.75
602.345	1172.75
602.795	1210.75
603.245	1131.75
603.695	1087.75
604.145	1021.75
604.594	983.75
605.044	934.75
605.494	854.75
605.944	858.75
606.393	815.75
606.843	805.75
607.293	823.75
607.743	793.75
608.192	844.75
608.642	847.75
609.091	822.75
609.541	812.75
609.99	812.75
610.44	800.75
610.889	797.75
611.339	847.75
611.788	771.75
612.238	777.75
612.687	800.75
613.136	825.75
613.586	809.75
614.035	827.75
614.484	823.75
614.933	815.75
615.383	821.75
615.832	795.75
616.281	761.75
616.73	750.75
617.179	746.75
617.628	743.75
618.077	748.75
618.526	729.75
618.975	702.75
619.424	684.75
619.873	703.75
620.322	689.75
620.771	684.75
621.22	667.75
621.669	645.75
622.118	663.75
622.567	657.75
623.015	641.75
623.464	658.75
623.913	667.75
624.361	661.75
624.81	638.75
625.259	674.75
625.707	612.75
626.156	644.75
626.604	653.75
627.053	637.75
627.501	645.75
627.95	649.75
628.398	656.75
628.847	639.75
629.295	651.75
629.744	667.75
630.192	641.75
630.64	663.75
631.089	711.75
631.537	779.75
631.985	800.75
632.433	768.75
632.881	810.75
633.33	896.75
633.778	1032.75
634.226	795.75
634.674	700.75
635.122	682.75
635.57	707.75
636.018	764.75
636.466	701.75
636.914	621.75
637.362	644.75
637.81	639.75
638.258	646.75
638.705	668.75
639.153	664.75
639.601	664.75
640.049	671.75
640.497	718.75
640.944	723.75
641.392	697.75
641.84	667.75
642.287	637.75
642.735	644.75
643.182	607.75
643.63	607.75
644.078	607.75
644.525	615.75
644.973	674.75
645.42	637.75
645.867	681.75
646.315	709.75
646.762	702.75
647.21	718.75
647.657	761.75
648.104	799.75
648.551	820.75
648.999	873.75
649.446	950.75
649.893	1079.75
650.34	1237.75
650.787	1482.75
651.234	1805.75
651.682	2501.75
652.129	3462.75
652.576	5017.75
653.023	7025.75
653.47	8739.75
653.917	9860.75
654.363	10287.75
654.81	10843.75
655.257	11368.75
655.704	8693.75
656.151	5141.75
656.598	3214.75
657.044	2248.75
657.491	1714.75
657.938	1412.75
658.385	1160.75
658.831	1038.75
659.278	903.75
659.724	839.75
660.171	808.75
660.618	749.75
661.064	704.75
661.511	653.75
661.957	629.75
662.404	610.75
662.85	608.75
663.296	615.75
663.743	582.75
664.189	581.75
664.635	575.75
665.082	584.75
665.528	576.75
665.974	582.75
666.42	570.75
666.867	592.75
667.313	573.75
667.759	617.75
668.205	649.75
668.651	629.75
669.097	617.75
669.543	694.75
669.989	667.75
670.435	525.75
670.881	546.75
671.327	533.75
671.773	580.75
672.219	579.75
672.665	669.75
673.11	643.75
673.556	680.75
674.002	674.75
674.448	701.75
674.893	615.75
675.339	541.75
675.785	507.75
676.23	488.75
676.676	483.75
677.122	434.75
677.567	439.75
678.013	443.75
678.458	452.75
678.904	432.75
679.349	410.75
679.794	419.75
680.24	399.75
680.685	411.75
681.131	421.75
681.576	419.75
682.021	414.75
682.466	434.75
682.912	421.75
683.357	420.75
683.802	461.75
684.247	511.75
684.692	535.75
685.137	509.75
685.583	529.75
686.028	571.75
686.473	564.75
686.918	489.75
687.363	443.75
687.807	443.75
688.252	428.75
688.697	412.75
689.142	373.75
689.587	376.75
690.032	392.75
690.477	419.75
690.921	424.75
691.366	458.75
691.811	457.75
692.255	485.75
692.7	551.75
693.145	658.75
693.589	967.75
694.034	1298.75
694.478	1449.75
694.923	1328.75
695.367	1610.75
695.812	1488.75
696.256	665.75
696.701	447.75
697.145	397.75
697.59	369.75
698.034	409.75
698.478	390.75
698.922	386.75
699.367	385.75
699.811	407.75
700.255	423.75
700.699	445.75
701.143	465.75
701.588	511.75
702.032	525.75
702.476	551.75
702.92	560.75
703.364	653.75
703.808	921.75
704.252	1196.75
704.696	1393.75
705.14	1257.75
705.584	1557.75
706.027	1306.75
706.471	653.75
706.915	454.75
707.359	401.75
707.803	383.75
708.246	391.75
708.69	379.75
709.134	375.75
709.577	377.75
710.021	373.75
710.465	348.75
710.908	365.75
711.352	354.75
711.795	375.75
712.239	447.75
712.682	453.75
713.126	440.75
713.569	480.75
714.012	428.75
714.456	385.75
714.899	381.75
715.342	361.75
715.786	331.75
716.229	325.75
716.672	316.75
717.115	328.75
717.558	309.75
718.002	329.75
718.445	359.75
718.888	353.75
719.331	384.75
719.774	369.75
720.217	366.75
720.66	356.75
721.103	323.75
721.546	302.75
721.989	295.75
722.432	317.75
722.874	315.75
723.317	315.75
723.76	318.75
724.203	328.75
724.645	445.75
725.088	524.75
725.531	565.75
725.974	535.75
726.416	591.75
726.859	403.75
727.301	343.75
727.744	324.75
728.187	298.75
728.629	300.75
729.071	319.75
729.514	344.75
729.956	356.75
730.399	334.75
730.841	331.75
731.283	334.75
731.726	341.75
732.168	323.75
732.61	319.75
733.053	354.75
733.495	394.75
733.937	396.75
734.379	449.75
734.821	557.75
735.263	709.75
735.705	1177.75
736.148	1896.75
736.59	2217.75
737.032	2038.75
737.474	2177.75
737.916	1123.75
738.357	556.75
738.799	383.75
739.241	353.75
739.683	355.75
740.125	355.75
740.567	378.75
741.008	377.75
741.45	385.75
741.892	382.75
742.334	381.75
742.775	387.75
743.217	389.75
743.658	342.75
744.1	342.75
744.542	362.75
744.983	394.75
745.425	402.75
745.866	433.75
746.307	382.75
746.749	363.75
747.19	452.75
747.632	703.75
748.073	1332.75
748.514	2009.75
748.956	2411.75
749.397	3257.75
749.838	2626.75
750.279	2171.75
750.72	1605.75
751.162	765.75
751.603	430.75
752.044	322.75
752.485	305.75
752.926	290.75
