Data from 20170802-ORNL-NYSim-Air_HRD10391_10-38-28-663.txt Node
Date: Wed Aug 02 10:38:28 EDT 2017
User: Ender
Spectrometer: HR+D1039
Trigger mode: 0
Integration Time (sec): 1.100000E-3
Scans to average: 1
Electric dark correction enabled: true
Nonlinearity correction enabled: false
Boxcar width: 0
XAxis mode: Wavelengths
Number of Pixels in Spectrum: 2048
>>>>>Begin Spectral Data<<<<<
187.836	11.81
188.309	11.81
188.782	11.81
189.255	-11.19
189.728	-9.19
190.201	-1.19
190.674	-0.19
191.147	-16.19
191.619	-12.19
192.092	-16.19
192.565	-2.19
193.038	-5.19
193.511	4.81
193.984	-0.19
194.456	21.81
194.929	11.81
195.402	8.81
195.874	14.81
196.347	24.81
196.82	17.81
197.292	23.81
197.765	36.81
198.237	25.81
198.71	39.81
199.182	68.81
199.655	36.81
200.127	50.81
200.6	54.81
201.072	46.81
201.544	60.81
202.017	71.81
202.489	80.81
202.961	77.81
203.433	79.81
203.906	78.81
204.378	69.81
204.85	74.81
205.322	93.81
205.794	86.81
206.266	86.81
206.739	99.81
207.211	97.81
207.683	89.81
208.155	101.81
208.627	93.81
209.099	85.81
209.57	105.81
210.042	90.81
210.514	83.81
210.986	103.81
211.458	103.81
211.93	86.81
212.402	84.81
212.873	85.81
213.345	81.81
213.817	92.81
214.288	90.81
214.76	86.81
215.232	69.81
215.703	85.81
216.175	71.81
216.646	90.81
217.118	85.81
217.589	69.81
218.061	96.81
218.532	89.81
219.004	82.81
219.475	94.81
219.946	86.81
220.418	82.81
220.889	80.81
221.36	77.81
221.832	83.81
222.303	96.81
222.774	78.81
223.245	82.81
223.717	93.81
224.188	81.81
224.659	83.81
225.13	72.81
225.601	87.81
226.072	91.81
226.543	69.81
227.014	72.81
227.485	80.81
227.956	79.81
228.427	74.81
228.898	81.81
229.369	78.81
229.839	93.81
230.31	89.81
230.781	89.81
231.252	85.81
231.722	70.81
232.193	73.81
232.664	71.81
233.135	93.81
233.605	82.81
234.076	87.81
234.546	97.81
235.017	94.81
235.487	76.81
235.958	86.81
236.428	96.81
236.899	99.81
237.369	92.81
237.84	92.81
238.31	99.81
238.78	86.81
239.251	91.81
239.721	69.81
240.191	88.81
240.662	113.81
241.132	87.81
241.602	99.81
242.072	98.81
242.542	83.81
243.013	91.81
243.483	105.81
243.953	92.81
244.423	88.81
244.893	81.81
245.363	84.81
245.833	85.81
246.303	90.81
246.773	106.81
247.243	99.81
247.712	93.81
248.182	99.81
248.652	103.81
249.122	96.81
249.592	113.81
250.061	135.81
250.531	178.81
251.001	131.81
251.471	137.81
251.94	114.81
252.41	106.81
252.879	102.81
253.349	103.81
253.818	85.81
254.288	91.81
254.757	80.81
255.227	90.81
255.696	96.81
256.166	103.81
256.635	90.81
257.105	92.81
257.574	90.81
258.043	95.81
258.513	108.81
258.982	128.81
259.451	97.81
259.92	109.81
260.389	98.81
260.859	106.81
261.328	99.81
261.797	109.81
262.266	108.81
262.735	82.81
263.204	93.81
263.673	92.81
264.142	91.81
264.611	86.81
265.08	89.81
265.549	78.81
266.018	84.81
266.487	92.81
266.955	105.81
267.424	88.81
267.893	110.81
268.362	95.81
268.83	79.81
269.299	91.81
269.768	84.81
270.236	83.81
270.705	79.81
271.174	105.81
271.642	88.81
272.111	98.81
272.579	116.81
273.048	124.81
273.516	125.81
273.985	133.81
274.453	123.81
274.922	115.81
275.39	93.81
275.858	108.81
276.327	107.81
276.795	105.81
277.263	117.81
277.731	98.81
278.2	116.81
278.668	111.81
279.136	119.81
279.604	133.81
280.072	74.81
280.54	89.81
281.008	92.81
281.477	105.81
281.945	101.81
282.413	108.81
282.881	82.81
283.348	95.81
283.816	110.81
284.284	96.81
284.752	99.81
285.22	98.81
285.688	114.81
286.156	134.81
286.623	173.81
287.091	241.81
287.559	171.81
288.026	115.81
288.494	97.81
288.962	100.81
289.429	119.81
289.897	107.81
290.364	101.81
290.832	107.81
291.3	98.81
291.767	103.81
292.234	132.81
292.702	100.81
293.169	115.81
293.637	109.81
294.104	110.81
294.571	103.81
295.039	112.81
295.506	91.81
295.973	117.81
296.44	109.81
296.908	104.81
297.375	111.81
297.842	85.81
298.309	76.81
298.776	105.81
299.243	98.81
299.71	102.81
300.177	91.81
300.644	107.81
301.111	106.81
301.578	104.81
302.045	120.81
302.512	100.81
302.979	87.81
303.446	109.81
303.913	105.81
304.379	107.81
304.846	100.81
305.313	119.81
305.78	106.81
306.246	138.81
306.713	139.81
307.18	124.81
307.646	110.81
308.113	120.81
308.579	113.81
309.046	101.81
309.512	116.81
309.979	106.81
310.445	123.81
310.912	117.81
311.378	111.81
311.845	115.81
312.311	110.81
312.777	95.81
313.244	121.81
313.71	112.81
314.176	111.81
314.642	133.81
315.109	130.81
315.575	130.81
316.041	114.81
316.507	120.81
316.973	129.81
317.439	123.81
317.905	137.81
318.371	125.81
318.837	126.81
319.303	123.81
319.769	143.81
320.235	141.81
320.701	128.81
321.167	145.81
321.633	158.81
322.099	167.81
322.564	204.81
323.03	172.81
323.496	175.81
323.962	151.81
324.427	145.81
324.893	124.81
325.359	149.81
325.824	109.81
326.29	133.81
326.755	121.81
327.221	111.81
327.686	144.81
328.152	129.81
328.617	112.81
329.083	115.81
329.548	131.81
330.014	132.81
330.479	153.81
330.944	157.81
331.41	154.81
331.875	141.81
332.34	153.81
332.805	159.81
333.271	179.81
333.736	232.81
334.201	207.81
334.666	169.81
335.131	187.81
335.596	155.81
336.061	175.81
336.526	139.81
336.991	145.81
337.456	154.81
337.921	139.81
338.386	136.81
338.851	126.81
339.316	123.81
339.781	117.81
340.246	139.81
340.711	122.81
341.175	124.81
341.64	131.81
342.105	135.81
342.569	123.81
343.034	107.81
343.499	129.81
343.963	139.81
344.428	134.81
344.893	158.81
345.357	147.81
345.822	123.81
346.286	148.81
346.751	140.81
347.215	159.81
347.679	143.81
348.144	151.81
348.608	145.81
349.073	131.81
349.537	150.81
350.001	167.81
350.465	153.81
350.93	159.81
351.394	144.81
351.858	143.81
352.322	149.81
352.786	137.81
353.25	161.81
353.715	143.81
354.179	168.81
354.643	145.81
355.107	163.81
355.571	152.81
356.035	146.81
356.498	163.81
356.962	172.81
357.426	157.81
357.89	171.81
358.354	155.81
358.818	155.81
359.281	144.81
359.745	172.81
360.209	147.81
360.673	164.81
361.136	165.81
361.6	150.81
362.064	161.81
362.527	163.81
362.991	183.81
363.454	160.81
363.918	161.81
364.381	162.81
364.845	188.81
365.308	157.81
365.772	172.81
366.235	152.81
366.698	174.81
367.162	192.81
367.625	191.81
368.088	168.81
368.552	182.81
369.015	169.81
369.478	185.81
369.941	172.81
370.404	167.81
370.867	176.81
371.331	196.81
371.794	198.81
372.257	217.81
372.72	211.81
373.183	194.81
373.646	196.81
374.109	225.81
374.572	238.81
375.035	259.81
375.497	202.81
375.96	185.81
376.423	173.81
376.886	174.81
377.349	185.81
377.811	172.81
378.274	189.81
378.737	163.81
379.199	180.81
379.662	182.81
380.125	204.81
380.587	223.81
381.05	200.81
381.512	232.81
381.975	221.81
382.437	202.81
382.9	224.81
383.362	212.81
383.825	210.81
384.287	240.81
384.75	295.81
385.212	243.81
385.674	207.81
386.136	221.81
386.599	209.81
387.061	227.81
387.523	219.81
387.985	218.81
388.447	221.81
388.91	261.81
389.372	287.81
389.834	285.81
390.296	250.81
390.758	236.81
391.22	244.81
391.682	269.81
392.144	394.81
392.606	363.81
393.068	232.81
393.529	225.81
393.991	238.81
394.453	249.81
394.915	242.81
395.377	268.81
395.838	315.81
396.3	260.81
396.762	194.81
397.224	219.81
397.685	201.81
398.147	199.81
398.608	197.81
399.07	190.81
399.531	207.81
399.993	216.81
400.454	215.81
400.916	209.81
401.377	208.81
401.839	212.81
402.3	208.81
402.762	237.81
403.223	249.81
403.684	252.81
404.145	235.81
404.607	243.81
405.068	229.81
405.529	222.81
405.99	215.81
406.451	232.81
406.913	223.81
407.374	215.81
407.835	230.81
408.296	235.81
408.757	217.81
409.218	241.81
409.679	239.81
410.14	252.81
410.601	246.81
411.062	258.81
411.522	295.81
411.983	295.81
412.444	281.81
412.905	236.81
413.366	240.81
413.826	269.81
414.287	273.81
414.748	320.81
415.208	322.81
415.669	282.81
416.13	263.81
416.59	257.81
417.051	247.81
417.511	281.81
417.972	283.81
418.432	312.81
418.893	320.81
419.353	307.81
419.814	272.81
420.274	249.81
420.734	249.81
421.195	251.81
421.655	267.81
422.115	264.81
422.576	245.81
423.036	265.81
423.496	245.81
423.956	275.81
424.416	264.81
424.876	289.81
425.336	293.81
425.797	285.81
426.257	310.81
426.717	315.81
427.177	301.81
427.637	288.81
428.097	280.81
428.556	309.81
429.016	333.81
429.476	354.81
429.936	320.81
430.396	318.81
430.856	331.81
431.315	337.81
431.775	348.81
432.235	348.81
432.694	369.81
433.154	366.81
433.614	359.81
434.073	357.81
434.533	306.81
434.993	297.81
435.452	324.81
435.912	313.81
436.371	292.81
436.83	292.81
437.29	309.81
437.749	287.81
438.209	273.81
438.668	277.81
439.127	302.81
439.587	291.81
440.046	257.81
440.505	278.81
440.964	285.81
441.424	292.81
441.883	290.81
442.342	246.81
442.801	252.81
443.26	268.81
443.719	263.81
444.178	264.81
444.637	271.81
445.096	266.81
445.555	255.81
446.014	277.81
446.473	277.81
446.932	254.81
447.391	283.81
447.849	293.81
448.308	256.81
448.767	260.81
449.226	283.81
449.685	273.81
450.143	277.81
450.602	295.81
451.061	279.81
451.519	284.81
451.978	279.81
452.436	303.81
452.895	308.81
453.353	299.81
453.812	277.81
454.27	286.81
454.729	272.81
455.187	263.81
455.646	265.81
456.104	275.81
456.562	263.81
457.021	277.81
457.479	287.81
457.937	285.81
458.395	270.81
458.854	283.81
459.312	283.81
459.77	274.81
460.228	283.81
460.686	275.81
461.144	270.81
461.602	273.81
462.06	287.81
462.518	289.81
462.976	303.81
463.434	278.81
463.892	308.81
464.35	267.81
464.808	303.81
465.266	289.81
465.724	284.81
466.181	291.81
466.639	301.81
467.097	295.81
467.555	329.81
468.012	333.81
468.47	324.81
468.928	324.81
469.385	337.81
469.843	345.81
470.3	327.81
470.758	353.81
471.215	357.81
471.673	371.81
472.13	376.81
472.588	372.81
473.045	366.81
473.503	400.81
473.96	374.81
474.417	380.81
474.875	435.81
475.332	437.81
475.789	444.81
476.246	449.81
476.704	443.81
477.161	458.81
477.618	474.81
478.075	507.81
478.532	543.81
478.989	583.81
479.446	649.81
479.903	681.81
480.36	742.81
480.817	795.81
481.274	849.81
481.731	964.81
482.188	996.81
482.645	1073.81
483.102	1149.81
483.558	1242.81
484.015	1280.81
484.472	1315.81
484.929	1271.81
485.385	1203.81
485.842	1166.81
486.299	1119.81
486.755	1042.81
487.212	921.81
487.668	821.81
488.125	759.81
488.582	699.81
489.038	653.81
489.494	644.81
489.951	613.81
490.407	610.81
490.864	601.81
491.32	565.81
491.776	560.81
492.233	580.81
492.689	571.81
493.145	558.81
493.602	538.81
494.058	540.81
494.514	580.81
494.97	565.81
495.426	590.81
495.882	596.81
496.338	566.81
496.794	608.81
497.251	633.81
497.707	625.81
498.163	630.81
498.618	595.81
499.074	610.81
499.53	622.81
499.986	647.81
500.442	617.81
500.898	630.81
501.354	637.81
501.809	645.81
502.265	623.81
502.721	639.81
503.177	692.81
503.632	658.81
504.088	645.81
504.543	710.81
504.999	653.81
505.455	613.81
505.91	563.81
506.366	573.81
506.821	580.81
507.277	588.81
507.732	561.81
508.187	573.81
508.643	595.81
509.098	560.81
509.553	571.81
510.009	557.81
510.464	589.81
510.919	596.81
511.375	614.81
511.83	607.81
512.285	623.81
512.74	643.81
513.195	652.81
513.65	639.81
514.105	663.81
514.56	639.81
515.015	683.81
515.47	684.81
515.925	674.81
516.38	686.81
516.835	676.81
517.29	653.81
517.745	658.81
518.2	694.81
518.655	685.81
519.109	614.81
519.564	620.81
520.019	641.81
520.474	649.81
520.928	634.81
521.383	633.81
521.838	610.81
522.292	600.81
522.747	593.81
523.201	617.81
523.656	623.81
524.11	610.81
524.565	617.81
525.019	606.81
525.474	610.81
525.928	623.81
526.382	594.81
526.837	605.81
527.291	610.81
527.745	597.81
528.2	606.81
528.654	597.81
529.108	605.81
529.562	584.81
530.016	601.81
530.47	596.81
530.925	603.81
531.379	601.81
531.833	603.81
532.287	637.81
532.741	624.81
533.195	616.81
533.649	608.81
534.103	614.81
534.556	569.81
535.01	614.81
535.464	595.81
535.918	598.81
536.372	628.81
536.826	617.81
537.279	588.81
537.733	617.81
538.187	599.81
538.64	609.81
539.094	584.81
539.548	623.81
540.001	627.81
540.455	606.81
540.908	618.81
541.362	637.81
541.815	637.81
542.269	639.81
542.722	654.81
543.175	653.81
543.629	636.81
544.082	651.81
544.536	650.81
544.989	665.81
545.442	656.81
545.895	663.81
546.349	688.81
546.802	694.81
547.255	656.81
547.708	643.81
548.161	676.81
548.614	669.81
549.067	693.81
549.52	692.81
549.973	671.81
550.426	677.81
550.879	684.81
551.332	651.81
551.785	655.81
552.238	666.81
552.691	681.81
553.144	682.81
553.596	665.81
554.049	680.81
554.502	729.81
554.955	755.81
555.407	718.81
555.86	708.81
556.313	728.81
556.765	686.81
557.218	677.81
557.67	681.81
558.123	700.81
558.576	691.81
559.028	705.81
559.48	716.81
559.933	701.81
560.385	693.81
560.838	644.81
561.29	659.81
561.742	637.81
562.195	631.81
562.647	628.81
563.099	624.81
563.551	619.81
564.004	638.81
564.456	609.81
564.908	621.81
565.36	624.81
565.812	584.81
566.264	597.81
566.716	595.81
567.168	571.81
567.62	591.81
568.072	580.81
568.524	559.81
568.976	553.81
569.428	565.81
569.88	588.81
570.332	559.81
570.784	567.81
571.235	578.81
571.687	554.81
572.139	546.81
572.59	568.81
573.042	557.81
573.494	569.81
573.945	577.81
574.397	547.81
574.849	563.81
575.3	564.81
575.752	573.81
576.203	564.81
576.655	545.81
577.106	525.81
577.557	523.81
578.009	563.81
578.46	545.81
578.912	551.81
579.363	544.81
579.814	536.81
580.265	548.81
580.717	545.81
581.168	533.81
581.619	554.81
582.07	570.81
582.521	554.81
582.972	553.81
583.423	571.81
583.875	545.81
584.326	606.81
584.777	655.81
585.227	749.81
585.678	842.81
586.129	867.81
586.58	923.81
587.031	944.81
587.482	1003.81
587.933	1302.81
588.384	1153.81
588.834	915.81
589.285	699.81
589.736	627.81
590.186	639.81
590.637	624.81
591.088	611.81
591.538	604.81
591.989	601.81
592.439	598.81
592.89	579.81
593.34	565.81
593.791	563.81
594.241	569.81
594.692	592.81
595.142	609.81
595.593	605.81
596.043	601.81
596.493	596.81
596.943	609.81
597.394	589.81
597.844	592.81
598.294	592.81
598.744	612.81
599.195	608.81
599.645	638.81
600.095	679.81
600.545	695.81
600.995	729.81
601.445	753.81
601.895	781.81
602.345	809.81
602.795	777.81
603.245	751.81
603.695	741.81
604.145	725.81
604.594	690.81
605.044	659.81
605.494	615.81
605.944	581.81
606.393	568.81
606.843	586.81
607.293	562.81
607.743	569.81
608.192	585.81
608.642	597.81
609.091	566.81
609.541	584.81
609.99	590.81
610.44	581.81
610.889	573.81
611.339	567.81
611.788	546.81
612.238	554.81
612.687	602.81
613.136	575.81
613.586	609.81
614.035	611.81
614.484	581.81
614.933	627.81
615.383	611.81
615.832	578.81
616.281	565.81
616.73	549.81
617.179	530.81
617.628	537.81
618.077	513.81
618.526	524.81
618.975	485.81
619.424	470.81
619.873	500.81
620.322	491.81
620.771	502.81
621.22	527.81
621.669	479.81
622.118	504.81
622.567	497.81
623.015	477.81
623.464	473.81
623.913	491.81
624.361	474.81
624.81	459.81
625.259	478.81
625.707	455.81
626.156	457.81
626.604	450.81
627.053	469.81
627.501	456.81
627.95	455.81
628.398	473.81
628.847	479.81
629.295	472.81
629.744	470.81
630.192	492.81
630.64	521.81
631.089	535.81
631.537	568.81
631.985	559.81
632.433	591.81
632.881	595.81
633.33	654.81
633.778	774.81
634.226	571.81
634.674	506.81
635.122	526.81
635.57	520.81
636.018	594.81
636.466	523.81
636.914	436.81
637.362	451.81
637.81	467.81
638.258	454.81
638.705	469.81
639.153	477.81
639.601	479.81
640.049	502.81
640.497	516.81
640.944	517.81
641.392	520.81
641.84	467.81
642.287	473.81
642.735	470.81
643.182	451.81
643.63	452.81
644.078	443.81
644.525	485.81
644.973	486.81
645.42	486.81
645.867	515.81
646.315	483.81
646.762	541.81
647.21	530.81
647.657	575.81
648.104	583.81
648.551	609.81
648.999	647.81
649.446	708.81
649.893	775.81
650.34	874.81
650.787	1032.81
651.234	1309.81
651.682	1740.81
652.129	2463.81
652.576	3541.81
653.023	5194.81
653.47	6423.81
653.917	7137.81
654.363	7459.81
654.81	7869.81
655.257	8314.81
655.704	6229.81
656.151	3621.81
656.598	2275.81
657.044	1605.81
657.491	1247.81
657.938	1019.81
658.385	829.81
658.831	753.81
659.278	659.81
659.724	608.81
660.171	564.81
660.618	537.81
661.064	518.81
661.511	466.81
661.957	454.81
662.404	460.81
662.85	476.81
663.296	455.81
663.743	421.81
664.189	424.81
664.635	434.81
665.082	397.81
665.528	408.81
665.974	423.81
666.42	397.81
666.867	419.81
667.313	421.81
667.759	447.81
668.205	464.81
668.651	491.81
669.097	461.81
669.543	531.81
669.989	533.81
670.435	416.81
670.881	399.81
671.327	373.81
671.773	417.81
672.219	399.81
672.665	423.81
673.11	487.81
673.556	462.81
674.002	491.81
674.448	487.81
674.893	435.81
675.339	389.81
675.785	378.81
676.23	362.81
676.676	332.81
677.122	327.81
677.567	324.81
678.013	336.81
678.458	317.81
678.904	306.81
679.349	323.81
679.794	313.81
680.24	315.81
680.685	311.81
681.131	318.81
681.576	312.81
682.021	316.81
682.466	301.81
682.912	330.81
683.357	346.81
683.802	324.81
684.247	381.81
684.692	384.81
685.137	374.81
685.583	399.81
686.028	438.81
686.473	416.81
686.918	375.81
687.363	330.81
687.807	345.81
688.252	313.81
688.697	295.81
689.142	301.81
689.587	327.81
690.032	283.81
690.477	318.81
690.921	328.81
691.366	339.81
691.811	336.81
692.255	355.81
692.7	355.81
693.145	474.81
693.589	706.81
694.034	887.81
694.478	984.81
694.923	947.81
695.367	1131.81
695.812	1003.81
696.256	456.81
696.701	319.81
697.145	305.81
697.59	301.81
698.034	293.81
698.478	300.81
698.922	319.81
699.367	305.81
699.811	283.81
700.255	323.81
700.699	350.81
701.143	365.81
701.588	387.81
702.032	383.81
702.476	414.81
702.92	434.81
703.364	438.81
703.808	622.81
704.252	866.81
704.696	948.81
705.14	887.81
705.584	1125.81
706.027	915.81
706.471	463.81
706.915	337.81
707.359	324.81
707.803	323.81
708.246	286.81
708.69	271.81
709.134	284.81
709.577	272.81
710.021	294.81
710.465	283.81
710.908	279.81
711.352	285.81
711.795	309.81
712.239	327.81
712.682	334.81
713.126	329.81
713.569	354.81
714.012	330.81
714.456	288.81
714.899	296.81
715.342	265.81
715.786	268.81
716.229	235.81
716.672	258.81
717.115	253.81
717.558	247.81
718.002	270.81
718.445	252.81
718.888	269.81
719.331	297.81
719.774	282.81
720.217	297.81
720.66	284.81
721.103	266.81
721.546	239.81
721.989	245.81
722.432	245.81
722.874	260.81
723.317	256.81
723.76	247.81
724.203	290.81
724.645	317.81
725.088	412.81
725.531	420.81
725.974	419.81
726.416	425.81
726.859	298.81
727.301	259.81
727.744	243.81
728.187	236.81
728.629	235.81
729.071	256.81
729.514	260.81
729.956	280.81
730.399	274.81
730.841	252.81
731.283	237.81
731.726	237.81
732.168	258.81
732.61	257.81
733.053	291.81
733.495	308.81
733.937	325.81
734.379	358.81
734.821	399.81
735.263	543.81
735.705	842.81
736.148	1322.81
736.59	1538.81
737.032	1469.81
737.474	1460.81
737.916	737.81
738.357	405.81
738.799	295.81
739.241	298.81
739.683	294.81
740.125	286.81
740.567	284.81
741.008	281.81
741.45	276.81
741.892	292.81
742.334	304.81
742.775	303.81
743.217	311.81
743.658	277.81
744.1	269.81
744.542	309.81
744.983	297.81
745.425	291.81
745.866	311.81
746.307	286.81
746.749	275.81
747.19	340.81
747.632	510.81
748.073	930.81
748.514	1427.81
748.956	1676.81
749.397	2262.81
749.838	1795.81
750.279	1489.81
750.72	1077.81
751.162	532.81
751.603	293.81
752.044	225.81
752.485	223.81
752.926	227.81
753.367	194.81
753.808	213.81
754.249	219.81
754.69	219.81
755.131	211.81
