Data from 20170802-ORNL-NYSim-Air_HRD10391_10-38-06-656.txt Node
Date: Wed Aug 02 10:38:06 EDT 2017
User: Ender
Spectrometer: HR+D1039
Trigger mode: 0
Integration Time (sec): 1.100000E-3
Scans to average: 1
Electric dark correction enabled: true
Nonlinearity correction enabled: false
Boxcar width: 0
XAxis mode: Wavelengths
Number of Pixels in Spectrum: 2048
>>>>>Begin Spectral Data<<<<<
187.836	-13.44
188.309	-13.44
188.782	-13.44
189.255	-2.44
189.728	-6.44
190.201	-11.44
190.674	3.56
191.147	2.56
191.619	-3.44
192.092	-9.44
192.565	-8.44
193.038	1.56
193.511	3.56
193.984	3.56
194.456	10.56
194.929	2.56
195.402	12.56
195.874	14.56
196.347	3.56
196.82	5.56
197.292	17.56
197.765	26.56
198.237	37.56
198.71	49.56
199.182	47.56
199.655	45.56
200.127	61.56
200.6	37.56
201.072	35.56
201.544	57.56
202.017	65.56
202.489	75.56
202.961	76.56
203.433	70.56
203.906	59.56
204.378	77.56
204.85	71.56
205.322	77.56
205.794	79.56
206.266	91.56
206.739	78.56
207.211	75.56
207.683	91.56
208.155	80.56
208.627	81.56
209.099	92.56
209.57	87.56
210.042	76.56
210.514	88.56
210.986	79.56
211.458	90.56
211.93	85.56
212.402	90.56
212.873	96.56
213.345	88.56
213.817	68.56
214.288	83.56
214.76	96.56
215.232	87.56
215.703	68.56
216.175	89.56
216.646	68.56
217.118	77.56
217.589	86.56
218.061	70.56
218.532	93.56
219.004	53.56
219.475	76.56
219.946	77.56
220.418	82.56
220.889	93.56
221.36	81.56
221.832	73.56
222.303	74.56
222.774	68.56
223.245	68.56
223.717	88.56
224.188	67.56
224.659	76.56
225.13	70.56
225.601	60.56
226.072	79.56
226.543	73.56
227.014	78.56
227.485	68.56
227.956	67.56
228.427	77.56
228.898	81.56
229.369	72.56
229.839	67.56
230.31	63.56
230.781	64.56
231.252	82.56
231.722	82.56
232.193	95.56
232.664	76.56
233.135	83.56
233.605	90.56
234.076	73.56
234.546	78.56
235.017	89.56
235.487	87.56
235.958	73.56
236.428	73.56
236.899	95.56
237.369	87.56
237.84	103.56
238.31	93.56
238.78	106.56
239.251	99.56
239.721	95.56
240.191	101.56
240.662	84.56
241.132	88.56
241.602	71.56
242.072	87.56
242.542	88.56
243.013	79.56
243.483	83.56
243.953	73.56
244.423	75.56
244.893	96.56
245.363	98.56
245.833	93.56
246.303	84.56
246.773	94.56
247.243	85.56
247.712	89.56
248.182	83.56
248.652	97.56
249.122	89.56
249.592	143.56
250.061	165.56
250.531	185.56
251.001	185.56
251.471	158.56
251.94	141.56
252.41	112.56
252.879	107.56
253.349	91.56
253.818	102.56
254.288	101.56
254.757	97.56
255.227	109.56
255.696	77.56
256.166	82.56
256.635	96.56
257.105	96.56
257.574	107.56
258.043	107.56
258.513	125.56
258.982	129.56
259.451	111.56
259.92	116.56
260.389	118.56
260.859	107.56
261.328	103.56
261.797	123.56
262.266	96.56
262.735	99.56
263.204	96.56
263.673	97.56
264.142	93.56
264.611	99.56
265.08	109.56
265.549	91.56
266.018	92.56
266.487	103.56
266.955	100.56
267.424	89.56
267.893	95.56
268.362	91.56
268.83	95.56
269.299	105.56
269.768	109.56
270.236	100.56
270.705	72.56
271.174	100.56
271.642	113.56
272.111	97.56
272.579	119.56
273.048	125.56
273.516	141.56
273.985	141.56
274.453	138.56
274.922	115.56
275.39	119.56
275.858	119.56
276.327	85.56
276.795	102.56
277.263	105.56
277.731	115.56
278.2	137.56
278.668	153.56
279.136	125.56
279.604	115.56
280.072	80.56
280.54	78.56
281.008	100.56
281.477	93.56
281.945	103.56
282.413	88.56
282.881	110.56
283.348	83.56
283.816	108.56
284.284	103.56
284.752	99.56
285.22	90.56
285.688	95.56
286.156	119.56
286.623	187.56
287.091	285.56
287.559	196.56
288.026	120.56
288.494	102.56
288.962	93.56
289.429	106.56
289.897	94.56
290.364	119.56
290.832	119.56
291.3	117.56
291.767	99.56
292.234	93.56
292.702	111.56
293.169	107.56
293.637	115.56
294.104	101.56
294.571	116.56
295.039	106.56
295.506	105.56
295.973	108.56
296.44	97.56
296.908	111.56
297.375	98.56
297.842	105.56
298.309	113.56
298.776	90.56
299.243	114.56
299.71	118.56
300.177	115.56
300.644	115.56
301.111	121.56
301.578	103.56
302.045	112.56
302.512	99.56
302.979	118.56
303.446	114.56
303.913	123.56
304.379	115.56
304.846	127.56
305.313	122.56
305.78	137.56
306.246	145.56
306.713	151.56
307.18	112.56
307.646	140.56
308.113	127.56
308.579	137.56
309.046	133.56
309.512	123.56
309.979	114.56
310.445	124.56
310.912	119.56
311.378	124.56
311.845	109.56
312.311	127.56
312.777	111.56
313.244	104.56
313.71	118.56
314.176	115.56
314.642	110.56
315.109	159.56
315.575	133.56
316.041	148.56
316.507	117.56
316.973	122.56
317.439	150.56
317.905	142.56
318.371	135.56
318.837	131.56
319.303	136.56
319.769	119.56
320.235	139.56
320.701	141.56
321.167	156.56
321.633	184.56
322.099	213.56
322.564	247.56
323.03	217.56
323.496	171.56
323.962	169.56
324.427	174.56
324.893	148.56
325.359	148.56
325.824	143.56
326.29	138.56
326.755	143.56
327.221	157.56
327.686	152.56
328.152	134.56
328.617	132.56
329.083	155.56
329.548	130.56
330.014	144.56
330.479	148.56
330.944	148.56
331.41	171.56
331.875	182.56
332.34	178.56
332.805	185.56
333.271	204.56
333.736	275.56
334.201	242.56
334.666	187.56
335.131	188.56
335.596	179.56
336.061	193.56
336.526	192.56
336.991	180.56
337.456	199.56
337.921	167.56
338.386	157.56
338.851	153.56
339.316	147.56
339.781	158.56
340.246	156.56
340.711	126.56
341.175	123.56
341.64	138.56
342.105	143.56
342.569	149.56
343.034	160.56
343.499	157.56
343.963	159.56
344.428	158.56
344.893	141.56
345.357	165.56
345.822	149.56
346.286	163.56
346.751	156.56
347.215	156.56
347.679	151.56
348.144	173.56
348.608	172.56
349.073	162.56
349.537	164.56
350.001	166.56
350.465	173.56
350.93	147.56
351.394	161.56
351.858	158.56
352.322	175.56
352.786	157.56
353.25	153.56
353.715	180.56
354.179	176.56
354.643	176.56
355.107	179.56
355.571	177.56
356.035	187.56
356.498	178.56
356.962	200.56
357.426	196.56
357.89	194.56
358.354	175.56
358.818	163.56
359.281	181.56
359.745	171.56
360.209	183.56
360.673	179.56
361.136	189.56
361.6	184.56
362.064	178.56
362.527	192.56
362.991	179.56
363.454	201.56
363.918	197.56
364.381	210.56
364.845	199.56
365.308	198.56
365.772	186.56
366.235	193.56
366.698	190.56
367.162	211.56
367.625	246.56
368.088	202.56
368.552	198.56
369.015	201.56
369.478	193.56
369.941	221.56
370.404	215.56
370.867	218.56
371.331	221.56
371.794	239.56
372.257	241.56
372.72	229.56
373.183	227.56
373.646	240.56
374.109	234.56
374.572	263.56
375.035	311.56
375.497	242.56
375.96	230.56
376.423	191.56
376.886	210.56
377.349	219.56
377.811	212.56
378.274	225.56
378.737	218.56
379.199	227.56
379.662	221.56
380.125	239.56
380.587	246.56
381.05	256.56
381.512	252.56
381.975	253.56
382.437	241.56
382.9	258.56
383.362	246.56
383.825	271.56
384.287	310.56
384.75	329.56
385.212	283.56
385.674	268.56
386.136	243.56
386.599	240.56
387.061	261.56
387.523	262.56
387.985	251.56
388.447	257.56
388.91	293.56
389.372	334.56
389.834	341.56
390.296	284.56
390.758	279.56
391.22	302.56
391.682	354.56
392.144	476.56
392.606	462.56
393.068	318.56
393.529	300.56
393.991	286.56
394.453	264.56
394.915	299.56
395.377	313.56
395.838	392.56
396.3	319.56
396.762	282.56
397.224	250.56
397.685	238.56
398.147	245.56
398.608	241.56
399.07	253.56
399.531	244.56
399.993	240.56
400.454	254.56
400.916	252.56
401.377	277.56
401.839	266.56
402.3	260.56
402.762	261.56
403.223	294.56
403.684	275.56
404.145	259.56
404.607	261.56
405.068	268.56
405.529	265.56
405.99	267.56
406.451	282.56
406.913	266.56
407.374	305.56
407.835	278.56
408.296	284.56
408.757	283.56
409.218	278.56
409.679	291.56
410.14	299.56
410.601	309.56
411.062	304.56
411.522	354.56
411.983	364.56
412.444	308.56
412.905	306.56
413.366	314.56
413.826	328.56
414.287	318.56
414.748	369.56
415.208	399.56
415.669	342.56
416.13	311.56
416.59	318.56
417.051	334.56
417.511	325.56
417.972	358.56
418.432	360.56
418.893	379.56
419.353	386.56
419.814	325.56
420.274	303.56
420.734	303.56
421.195	297.56
421.655	291.56
422.115	292.56
422.576	319.56
423.036	297.56
423.496	325.56
423.956	325.56
424.416	335.56
424.876	368.56
425.336	375.56
425.797	385.56
426.257	372.56
426.717	371.56
427.177	358.56
427.637	362.56
428.097	377.56
428.556	382.56
429.016	401.56
429.476	417.56
429.936	395.56
430.396	373.56
430.856	391.56
431.315	408.56
431.775	419.56
432.235	451.56
432.694	481.56
433.154	449.56
433.614	425.56
434.073	427.56
434.533	388.56
434.993	381.56
435.452	391.56
435.912	375.56
436.371	351.56
436.83	360.56
437.29	375.56
437.749	379.56
438.209	347.56
438.668	350.56
439.127	360.56
439.587	346.56
440.046	355.56
440.505	353.56
440.964	329.56
441.424	349.56
441.883	340.56
442.342	336.56
442.801	315.56
443.26	339.56
443.719	343.56
444.178	328.56
444.637	337.56
445.096	299.56
445.555	340.56
446.014	331.56
446.473	331.56
446.932	312.56
447.391	334.56
447.849	339.56
448.308	331.56
448.767	355.56
449.226	337.56
449.685	344.56
450.143	355.56
450.602	363.56
451.061	353.56
451.519	354.56
451.978	349.56
452.436	377.56
452.895	349.56
453.353	335.56
453.812	358.56
454.27	340.56
454.729	329.56
455.187	343.56
455.646	332.56
456.104	376.56
456.562	356.56
457.021	348.56
457.479	326.56
457.937	344.56
458.395	354.56
458.854	347.56
459.312	350.56
459.77	347.56
460.228	342.56
460.686	363.56
461.144	379.56
461.602	357.56
462.06	337.56
462.518	371.56
462.976	378.56
463.434	357.56
463.892	379.56
464.35	377.56
464.808	387.56
465.266	366.56
465.724	368.56
466.181	368.56
466.639	394.56
467.097	428.56
467.555	387.56
468.012	412.56
468.47	384.56
468.928	409.56
469.385	411.56
469.843	443.56
470.3	431.56
470.758	435.56
471.215	457.56
471.673	473.56
472.13	454.56
472.588	462.56
473.045	490.56
473.503	486.56
473.96	490.56
474.417	500.56
474.875	497.56
475.332	525.56
475.789	541.56
476.246	572.56
476.704	624.56
477.161	593.56
477.618	614.56
478.075	643.56
478.532	689.56
478.989	741.56
479.446	856.56
479.903	839.56
480.36	961.56
480.817	1038.56
481.274	1097.56
481.731	1211.56
482.188	1342.56
482.645	1395.56
483.102	1461.56
483.558	1574.56
484.015	1673.56
484.472	1686.56
484.929	1602.56
485.385	1579.56
485.842	1497.56
486.299	1503.56
486.755	1347.56
487.212	1171.56
487.668	1089.56
488.125	981.56
488.582	901.56
489.038	837.56
489.494	818.56
489.951	781.56
490.407	726.56
490.864	764.56
491.32	757.56
491.776	710.56
492.233	698.56
492.689	703.56
493.145	687.56
493.602	713.56
494.058	728.56
494.514	709.56
494.97	695.56
495.426	744.56
495.882	741.56
496.338	741.56
496.794	756.56
497.251	778.56
497.707	786.56
498.163	777.56
498.618	803.56
499.074	801.56
499.53	812.56
499.986	785.56
500.442	801.56
500.898	835.56
501.354	823.56
501.809	786.56
502.265	819.56
502.721	851.56
503.177	901.56
503.632	859.56
504.088	797.56
504.543	927.56
504.999	842.56
505.455	780.56
505.91	740.56
506.366	717.56
506.821	712.56
507.277	716.56
507.732	741.56
508.187	731.56
508.643	745.56
509.098	753.56
509.553	745.56
510.009	743.56
510.464	763.56
510.919	783.56
511.375	784.56
511.83	790.56
512.285	798.56
512.74	816.56
513.195	843.56
513.65	846.56
514.105	859.56
514.56	868.56
515.015	863.56
515.47	877.56
515.925	885.56
516.38	875.56
516.835	856.56
517.29	877.56
517.745	909.56
518.2	887.56
518.655	823.56
519.109	826.56
519.564	801.56
520.019	829.56
520.474	787.56
520.928	796.56
521.383	823.56
521.838	765.56
522.292	779.56
522.747	806.56
523.201	763.56
523.656	747.56
524.11	770.56
524.565	797.56
525.019	795.56
525.474	771.56
525.928	767.56
526.382	775.56
526.837	757.56
527.291	767.56
527.745	759.56
528.2	775.56
528.654	754.56
529.108	775.56
529.562	775.56
530.016	768.56
530.47	779.56
530.925	743.56
531.379	735.56
531.833	791.56
532.287	758.56
532.741	773.56
533.195	736.56
533.649	751.56
534.103	767.56
534.556	767.56
535.01	776.56
535.464	770.56
535.918	771.56
536.372	772.56
536.826	772.56
537.279	749.56
537.733	741.56
538.187	779.56
538.64	763.56
539.094	787.56
539.548	783.56
540.001	805.56
540.455	767.56
540.908	789.56
541.362	791.56
541.815	777.56
542.269	818.56
542.722	852.56
543.175	830.56
543.629	831.56
544.082	852.56
544.536	861.56
544.989	840.56
545.442	849.56
545.895	875.56
546.349	821.56
546.802	844.56
547.255	844.56
547.708	826.56
548.161	861.56
548.614	869.56
549.067	879.56
549.52	846.56
549.973	857.56
550.426	858.56
550.879	842.56
551.332	816.56
551.785	861.56
552.238	877.56
552.691	854.56
553.144	859.56
553.596	871.56
554.049	904.56
554.502	899.56
554.955	887.56
555.407	930.56
555.86	913.56
556.313	933.56
556.765	926.56
557.218	863.56
557.67	890.56
558.123	887.56
558.576	927.56
559.028	906.56
559.48	881.56
559.933	903.56
560.385	868.56
560.838	834.56
561.29	832.56
561.742	818.56
562.195	766.56
562.647	780.56
563.099	804.56
563.551	810.56
564.004	835.56
564.456	817.56
564.908	763.56
565.36	778.56
565.812	777.56
566.264	773.56
566.716	733.56
567.168	719.56
567.62	740.56
568.072	730.56
568.524	743.56
568.976	710.56
569.428	730.56
569.88	709.56
570.332	733.56
570.784	744.56
571.235	738.56
571.687	749.56
572.139	729.56
572.59	696.56
573.042	741.56
573.494	739.56
573.945	724.56
574.397	728.56
574.849	710.56
575.3	684.56
575.752	716.56
576.203	691.56
576.655	706.56
577.106	720.56
577.557	671.56
578.009	687.56
578.46	685.56
578.912	701.56
579.363	704.56
579.814	689.56
580.265	687.56
580.717	679.56
581.168	699.56
581.619	680.56
582.07	693.56
582.521	708.56
582.972	716.56
583.423	687.56
583.875	694.56
584.326	762.56
584.777	780.56
585.227	859.56
585.678	958.56
586.129	975.56
586.58	1033.56
587.031	1033.56
587.482	1093.56
587.933	1326.56
588.384	1255.56
588.834	1053.56
589.285	803.56
589.736	798.56
590.186	766.56
590.637	787.56
591.088	743.56
591.538	739.56
591.989	735.56
592.439	732.56
592.89	710.56
593.34	734.56
593.791	755.56
594.241	739.56
594.692	738.56
595.142	717.56
595.593	746.56
596.043	755.56
596.493	710.56
596.943	743.56
597.394	778.56
597.844	718.56
598.294	748.56
598.744	771.56
599.195	800.56
599.645	839.56
600.095	885.56
600.545	891.56
600.995	961.56
601.445	952.56
601.895	1001.56
602.345	1045.56
602.795	1036.56
603.245	958.56
603.695	957.56
604.145	910.56
604.594	879.56
605.044	835.56
605.494	790.56
605.944	721.56
606.393	728.56
606.843	713.56
607.293	686.56
607.743	713.56
608.192	758.56
608.642	742.56
609.091	732.56
609.541	731.56
609.99	719.56
610.44	726.56
610.889	717.56
611.339	705.56
611.788	707.56
612.238	672.56
612.687	697.56
613.136	704.56
613.586	733.56
614.035	715.56
614.484	739.56
614.933	763.56
615.383	770.56
615.832	684.56
616.281	704.56
616.73	678.56
617.179	638.56
617.628	645.56
618.077	626.56
618.526	624.56
618.975	643.56
619.424	606.56
619.873	594.56
620.322	587.56
620.771	641.56
621.22	627.56
621.669	591.56
622.118	569.56
622.567	602.56
623.015	612.56
623.464	611.56
623.913	575.56
624.361	567.56
624.81	562.56
625.259	536.56
625.707	563.56
626.156	559.56
626.604	580.56
627.053	564.56
627.501	603.56
627.95	611.56
628.398	597.56
628.847	572.56
629.295	577.56
629.744	581.56
630.192	566.56
630.64	586.56
631.089	654.56
631.537	688.56
631.985	681.56
632.433	734.56
632.881	723.56
633.33	801.56
633.778	955.56
634.226	732.56
634.674	635.56
635.122	645.56
635.57	660.56
636.018	732.56
636.466	639.56
636.914	575.56
637.362	541.56
637.81	574.56
638.258	582.56
638.705	591.56
639.153	588.56
639.601	601.56
640.049	621.56
640.497	621.56
640.944	657.56
641.392	638.56
641.84	568.56
642.287	586.56
642.735	579.56
643.182	565.56
643.63	579.56
644.078	593.56
644.525	571.56
644.973	594.56
645.42	591.56
645.867	603.56
646.315	611.56
646.762	644.56
647.21	670.56
647.657	678.56
648.104	714.56
648.551	702.56
648.999	796.56
649.446	853.56
649.893	959.56
650.34	1118.56
650.787	1345.56
651.234	1693.56
651.682	2194.56
652.129	3212.56
652.576	4649.56
653.023	6550.56
653.47	7998.56
653.917	8953.56
654.363	9507.56
654.81	10039.56
655.257	10567.56
655.704	7900.56
656.151	4622.56
656.598	2896.56
657.044	2055.56
657.491	1561.56
657.938	1286.56
658.385	1078.56
658.831	915.56
659.278	812.56
659.724	764.56
660.171	714.56
660.618	661.56
661.064	608.56
661.511	581.56
661.957	571.56
662.404	572.56
662.85	556.56
663.296	529.56
663.743	537.56
664.189	525.56
664.635	545.56
665.082	501.56
665.528	512.56
665.974	503.56
666.42	496.56
666.867	501.56
667.313	529.56
667.759	545.56
668.205	535.56
668.651	562.56
669.097	538.56
669.543	589.56
669.989	567.56
670.435	501.56
670.881	498.56
671.327	470.56
671.773	520.56
672.219	538.56
672.665	566.56
673.11	573.56
673.556	596.56
674.002	594.56
674.448	603.56
674.893	568.56
675.339	471.56
675.785	443.56
676.23	420.56
676.676	399.56
677.122	408.56
677.567	391.56
678.013	367.56
678.458	395.56
678.904	399.56
679.349	370.56
679.794	366.56
680.24	368.56
680.685	373.56
681.131	365.56
681.576	371.56
682.021	363.56
682.466	365.56
682.912	367.56
683.357	397.56
683.802	419.56
684.247	440.56
684.692	481.56
685.137	476.56
685.583	461.56
686.028	503.56
686.473	495.56
686.918	453.56
687.363	403.56
687.807	410.56
688.252	384.56
688.697	355.56
689.142	366.56
689.587	369.56
690.032	368.56
690.477	373.56
690.921	359.56
691.366	400.56
691.811	387.56
692.255	450.56
692.7	497.56
693.145	610.56
693.589	908.56
694.034	1177.56
694.478	1246.56
694.923	1158.56
695.367	1424.56
695.812	1321.56
696.256	609.56
696.701	391.56
697.145	364.56
697.59	345.56
698.034	344.56
698.478	365.56
698.922	359.56
699.367	361.56
699.811	358.56
700.255	376.56
700.699	417.56
701.143	460.56
701.588	450.56
702.032	488.56
702.476	508.56
702.92	484.56
703.364	558.56
703.808	813.56
704.252	1081.56
704.696	1195.56
705.14	1145.56
705.584	1394.56
706.027	1138.56
706.471	594.56
706.915	419.56
707.359	382.56
707.803	354.56
708.246	349.56
708.69	320.56
709.134	330.56
709.577	321.56
710.021	340.56
710.465	339.56
710.908	317.56
711.352	337.56
711.795	351.56
712.239	389.56
712.682	427.56
713.126	398.56
713.569	436.56
714.012	405.56
714.456	358.56
714.899	358.56
715.342	315.56
715.786	307.56
716.229	304.56
716.672	289.56
717.115	269.56
717.558	296.56
718.002	307.56
718.445	300.56
718.888	311.56
719.331	319.56
719.774	308.56
720.217	313.56
720.66	314.56
721.103	286.56
721.546	299.56
721.989	269.56
722.432	301.56
722.874	297.56
723.317	259.56
723.76	281.56
724.203	311.56
724.645	387.56
725.088	458.56
725.531	494.56
725.974	501.56
726.416	507.56
726.859	391.56
727.301	295.56
727.744	313.56
728.187	285.56
728.629	277.56
729.071	270.56
729.514	298.56
729.956	294.56
730.399	332.56
730.841	334.56
731.283	296.56
731.726	328.56
732.168	311.56
732.61	317.56
733.053	335.56
733.495	355.56
733.937	343.56
734.379	391.56
734.821	472.56
735.263	659.56
735.705	1065.56
736.148	1702.56
736.59	1971.56
737.032	1813.56
737.474	1929.56
737.916	951.56
738.357	512.56
738.799	387.56
739.241	353.56
739.683	318.56
740.125	321.56
740.567	303.56
741.008	309.56
741.45	383.56
741.892	367.56
742.334	359.56
742.775	359.56
743.217	346.56
743.658	321.56
744.1	302.56
744.542	346.56
744.983	363.56
745.425	361.56
745.866	366.56
746.307	315.56
746.749	334.56
747.19	400.56
747.632	645.56
748.073	1201.56
748.514	1789.56
748.956	2136.56
749.397	2897.56
749.838	2417.56
750.279	1932.56
750.72	1463.56
751.162	673.56
751.603	359.56
752.044	293.56
752.485	278.56
752.926	266.56
753.367	247.56
753.808	243.56
754.249	220.56
