Data from 20170802-ORNL-NYSim-Air_HRD10391_10-38-35-665.txt Node
Date: Wed Aug 02 10:38:35 EDT 2017
User: Ender
Spectrometer: HR+D1039
Trigger mode: 0
Integration Time (sec): 1.100000E-3
Scans to average: 1
Electric dark correction enabled: true
Nonlinearity correction enabled: false
Boxcar width: 0
XAxis mode: Wavelengths
Number of Pixels in Spectrum: 2048
>>>>>Begin Spectral Data<<<<<
187.836	4.81
188.309	4.81
188.782	4.81
189.255	-17.19
189.728	4.81
190.201	-3.19
190.674	-10.19
191.147	-2.19
191.619	-11.19
192.092	11.81
192.565	-12.19
193.038	0.81
193.511	-7.19
193.984	0.81
194.456	12.81
194.929	8.81
195.402	2.81
195.874	15.81
196.347	9.81
196.82	18.81
197.292	21.81
197.765	37.81
198.237	38.81
198.71	39.81
199.182	47.81
199.655	54.81
200.127	51.81
200.6	63.81
201.072	66.81
201.544	63.81
202.017	44.81
202.489	75.81
202.961	60.81
203.433	66.81
203.906	70.81
204.378	74.81
204.85	84.81
205.322	74.81
205.794	84.81
206.266	77.81
206.739	81.81
207.211	75.81
207.683	80.81
208.155	84.81
208.627	90.81
209.099	77.81
209.57	83.81
210.042	90.81
210.514	90.81
210.986	94.81
211.458	84.81
211.93	77.81
212.402	77.81
212.873	80.81
213.345	80.81
213.817	88.81
214.288	90.81
214.76	82.81
215.232	79.81
215.703	102.81
216.175	76.81
216.646	74.81
217.118	92.81
217.589	103.81
218.061	88.81
218.532	73.81
219.004	79.81
219.475	78.81
219.946	81.81
220.418	79.81
220.889	83.81
221.36	81.81
221.832	87.81
222.303	82.81
222.774	71.81
223.245	86.81
223.717	75.81
224.188	83.81
224.659	88.81
225.13	74.81
225.601	67.81
226.072	72.81
226.543	95.81
227.014	63.81
227.485	71.81
227.956	74.81
228.427	80.81
228.898	87.81
229.369	86.81
229.839	71.81
230.31	76.81
230.781	77.81
231.252	92.81
231.722	73.81
232.193	73.81
232.664	75.81
233.135	99.81
233.605	93.81
234.076	66.81
234.546	82.81
235.017	88.81
235.487	93.81
235.958	95.81
236.428	79.81
236.899	80.81
237.369	91.81
237.84	98.81
238.31	90.81
238.78	97.81
239.251	102.81
239.721	95.81
240.191	99.81
240.662	93.81
241.132	95.81
241.602	72.81
242.072	91.81
242.542	71.81
243.013	90.81
243.483	95.81
243.953	95.81
244.423	94.81
244.893	98.81
245.363	101.81
245.833	85.81
246.303	86.81
246.773	85.81
247.243	107.81
247.712	83.81
248.182	83.81
248.652	93.81
249.122	103.81
249.592	110.81
250.061	133.81
250.531	159.81
251.001	144.81
251.471	137.81
251.94	119.81
252.41	94.81
252.879	95.81
253.349	82.81
253.818	92.81
254.288	91.81
254.757	103.81
255.227	82.81
255.696	93.81
256.166	107.81
256.635	87.81
257.105	83.81
257.574	101.81
258.043	109.81
258.513	109.81
258.982	110.81
259.451	95.81
259.92	99.81
260.389	90.81
260.859	87.81
261.328	98.81
261.797	103.81
262.266	129.81
262.735	101.81
263.204	104.81
263.673	100.81
264.142	67.81
264.611	89.81
265.08	93.81
265.549	101.81
266.018	71.81
266.487	86.81
266.955	97.81
267.424	83.81
267.893	106.81
268.362	94.81
268.83	90.81
269.299	82.81
269.768	96.81
270.236	95.81
270.705	86.81
271.174	94.81
271.642	89.81
272.111	107.81
272.579	108.81
273.048	125.81
273.516	134.81
273.985	145.81
274.453	117.81
274.922	96.81
275.39	105.81
275.858	103.81
276.327	102.81
276.795	97.81
277.263	96.81
277.731	101.81
278.2	119.81
278.668	130.81
279.136	113.81
279.604	105.81
280.072	101.81
280.54	101.81
281.008	106.81
281.477	85.81
281.945	73.81
282.413	84.81
282.881	95.81
283.348	92.81
283.816	103.81
284.284	97.81
284.752	88.81
285.22	87.81
285.688	117.81
286.156	108.81
286.623	154.81
287.091	221.81
287.559	166.81
288.026	118.81
288.494	115.81
288.962	103.81
289.429	103.81
289.897	118.81
290.364	97.81
290.832	92.81
291.3	113.81
291.767	102.81
292.234	104.81
292.702	110.81
293.169	103.81
293.637	90.81
294.104	98.81
294.571	95.81
295.039	90.81
295.506	109.81
295.973	94.81
296.44	97.81
296.908	101.81
297.375	104.81
297.842	110.81
298.309	94.81
298.776	110.81
299.243	106.81
299.71	100.81
300.177	107.81
300.644	98.81
301.111	91.81
301.578	90.81
302.045	106.81
302.512	105.81
302.979	98.81
303.446	106.81
303.913	102.81
304.379	98.81
304.846	114.81
305.313	112.81
305.78	116.81
306.246	133.81
306.713	119.81
307.18	114.81
307.646	130.81
308.113	118.81
308.579	121.81
309.046	127.81
309.512	107.81
309.979	103.81
310.445	99.81
310.912	123.81
311.378	107.81
311.845	119.81
312.311	107.81
312.777	107.81
313.244	129.81
313.71	133.81
314.176	104.81
314.642	109.81
315.109	134.81
315.575	106.81
316.041	112.81
316.507	121.81
316.973	123.81
317.439	112.81
317.905	117.81
318.371	114.81
318.837	125.81
319.303	123.81
319.769	141.81
320.235	121.81
320.701	135.81
321.167	151.81
321.633	156.81
322.099	172.81
322.564	201.81
323.03	183.81
323.496	158.81
323.962	142.81
324.427	141.81
324.893	130.81
325.359	128.81
325.824	127.81
326.29	127.81
326.755	131.81
327.221	117.81
327.686	121.81
328.152	117.81
328.617	113.81
329.083	125.81
329.548	127.81
330.014	126.81
330.479	133.81
330.944	128.81
331.41	141.81
331.875	137.81
332.34	161.81
332.805	161.81
333.271	181.81
333.736	219.81
334.201	206.81
334.666	169.81
335.131	193.81
335.596	157.81
336.061	168.81
336.526	152.81
336.991	157.81
337.456	157.81
337.921	131.81
338.386	135.81
338.851	147.81
339.316	134.81
339.781	116.81
340.246	99.81
340.711	117.81
341.175	121.81
341.64	133.81
342.105	121.81
342.569	123.81
343.034	119.81
343.499	114.81
343.963	130.81
344.428	146.81
344.893	116.81
345.357	137.81
345.822	127.81
346.286	140.81
346.751	118.81
347.215	141.81
347.679	139.81
348.144	153.81
348.608	151.81
349.073	153.81
349.537	150.81
350.001	166.81
350.465	142.81
350.93	132.81
351.394	135.81
351.858	115.81
352.322	162.81
352.786	127.81
353.25	133.81
353.715	157.81
354.179	167.81
354.643	151.81
355.107	157.81
355.571	175.81
356.035	163.81
356.498	143.81
356.962	166.81
357.426	155.81
357.89	153.81
358.354	146.81
358.818	145.81
359.281	144.81
359.745	133.81
360.209	152.81
360.673	159.81
361.136	157.81
361.6	137.81
362.064	151.81
362.527	169.81
362.991	148.81
363.454	152.81
363.918	156.81
364.381	170.81
364.845	146.81
365.308	167.81
365.772	163.81
366.235	157.81
366.698	175.81
367.162	177.81
367.625	203.81
368.088	169.81
368.552	160.81
369.015	142.81
369.478	181.81
369.941	148.81
370.404	176.81
370.867	177.81
371.331	211.81
371.794	194.81
372.257	193.81
372.72	197.81
373.183	211.81
373.646	190.81
374.109	198.81
374.572	231.81
375.035	250.81
375.497	216.81
375.96	169.81
376.423	165.81
376.886	195.81
377.349	185.81
377.811	174.81
378.274	166.81
378.737	170.81
379.199	180.81
379.662	162.81
380.125	187.81
380.587	209.81
381.05	219.81
381.512	206.81
381.975	218.81
382.437	211.81
382.9	207.81
383.362	205.81
383.825	199.81
384.287	262.81
384.75	281.81
385.212	243.81
385.674	215.81
386.136	203.81
386.599	225.81
387.061	200.81
387.523	215.81
387.985	199.81
388.447	238.81
388.91	245.81
389.372	274.81
389.834	258.81
390.296	223.81
390.758	234.81
391.22	222.81
391.682	245.81
392.144	398.81
392.606	395.81
393.068	244.81
393.529	233.81
393.991	249.81
394.453	233.81
394.915	229.81
395.377	272.81
395.838	314.81
396.3	233.81
396.762	197.81
397.224	185.81
397.685	206.81
398.147	194.81
398.608	190.81
399.07	195.81
399.531	197.81
399.993	190.81
400.454	204.81
400.916	195.81
401.377	206.81
401.839	198.81
402.3	200.81
402.762	219.81
403.223	219.81
403.684	227.81
404.145	214.81
404.607	218.81
405.068	202.81
405.529	222.81
405.99	204.81
406.451	213.81
406.913	229.81
407.374	229.81
407.835	217.81
408.296	218.81
408.757	238.81
409.218	229.81
409.679	237.81
410.14	226.81
410.601	228.81
411.062	237.81
411.522	273.81
411.983	287.81
412.444	259.81
412.905	250.81
413.366	256.81
413.826	249.81
414.287	251.81
414.748	294.81
415.208	297.81
415.669	267.81
416.13	274.81
416.59	259.81
417.051	235.81
417.511	257.81
417.972	277.81
418.432	288.81
418.893	320.81
419.353	302.81
419.814	238.81
420.274	233.81
420.734	229.81
421.195	228.81
421.655	237.81
422.115	239.81
422.576	234.81
423.036	229.81
423.496	245.81
423.956	264.81
424.416	253.81
424.876	292.81
425.336	295.81
425.797	283.81
426.257	299.81
426.717	293.81
427.177	281.81
427.637	281.81
428.097	274.81
428.556	281.81
429.016	331.81
429.476	291.81
429.936	325.81
430.396	312.81
430.856	305.81
431.315	332.81
431.775	332.81
432.235	337.81
432.694	344.81
433.154	345.81
433.614	329.81
434.073	313.81
434.533	273.81
434.993	295.81
435.452	275.81
435.912	312.81
436.371	291.81
436.83	266.81
437.29	289.81
437.749	295.81
438.209	279.81
438.668	277.81
439.127	281.81
439.587	271.81
440.046	274.81
440.505	272.81
440.964	267.81
441.424	265.81
441.883	256.81
442.342	281.81
442.801	241.81
443.26	272.81
443.719	274.81
444.178	257.81
444.637	267.81
445.096	233.81
445.555	263.81
446.014	253.81
446.473	268.81
446.932	263.81
447.391	273.81
447.849	265.81
448.308	261.81
448.767	263.81
449.226	277.81
449.685	263.81
450.143	281.81
450.602	300.81
451.061	250.81
451.519	283.81
451.978	278.81
452.436	301.81
452.895	287.81
453.353	277.81
453.812	281.81
454.27	265.81
454.729	252.81
455.187	262.81
455.646	258.81
456.104	262.81
456.562	276.81
457.021	267.81
457.479	236.81
457.937	270.81
458.395	277.81
458.854	271.81
459.312	243.81
459.77	269.81
460.228	275.81
460.686	272.81
461.144	261.81
461.602	276.81
462.06	282.81
462.518	269.81
462.976	284.81
463.434	261.81
463.892	281.81
464.35	287.81
464.808	281.81
465.266	297.81
465.724	301.81
466.181	291.81
466.639	297.81
467.097	325.81
467.555	325.81
468.012	313.81
468.47	311.81
468.928	327.81
469.385	316.81
469.843	323.81
470.3	308.81
470.758	344.81
471.215	323.81
471.673	356.81
472.13	344.81
472.588	361.81
473.045	353.81
473.503	373.81
473.96	359.81
474.417	371.81
474.875	394.81
475.332	377.81
475.789	397.81
476.246	397.81
476.704	436.81
477.161	457.81
477.618	450.81
478.075	468.81
478.532	493.81
478.989	529.81
479.446	590.81
479.903	609.81
480.36	692.81
480.817	717.81
481.274	776.81
481.731	826.81
482.188	893.81
482.645	990.81
483.102	1026.81
483.558	1107.81
484.015	1206.81
484.472	1185.81
484.929	1146.81
485.385	1102.81
485.842	1054.81
486.299	1026.81
486.755	942.81
487.212	846.81
487.668	739.81
488.125	701.81
488.582	664.81
489.038	626.81
489.494	614.81
489.951	556.81
490.407	577.81
490.864	544.81
491.32	544.81
491.776	540.81
492.233	503.81
492.689	524.81
493.145	523.81
493.602	515.81
494.058	525.81
494.514	547.81
494.97	529.81
495.426	531.81
495.882	557.81
496.338	541.81
496.794	569.81
497.251	590.81
497.707	555.81
498.163	583.81
498.618	584.81
499.074	587.81
499.53	588.81
499.986	596.81
500.442	618.81
500.898	580.81
501.354	611.81
501.809	613.81
502.265	628.81
502.721	629.81
503.177	672.81
503.632	638.81
504.088	636.81
504.543	677.81
504.999	680.81
505.455	571.81
505.91	549.81
506.366	547.81
506.821	543.81
507.277	565.81
507.732	548.81
508.187	537.81
508.643	537.81
509.098	543.81
509.553	567.81
510.009	584.81
510.464	584.81
510.919	587.81
511.375	571.81
511.83	576.81
512.285	593.81
512.74	628.81
513.195	616.81
513.65	617.81
514.105	627.81
514.56	608.81
515.015	631.81
515.47	673.81
515.925	658.81
516.38	657.81
516.835	638.81
517.29	656.81
517.745	641.81
518.2	641.81
518.655	619.81
519.109	587.81
519.564	614.81
520.019	619.81
520.474	611.81
520.928	593.81
521.383	601.81
521.838	620.81
522.292	613.81
522.747	549.81
523.201	575.81
523.656	580.81
524.11	582.81
524.565	560.81
525.019	592.81
525.474	595.81
525.928	558.81
526.382	568.81
526.837	568.81
527.291	591.81
527.745	566.81
528.2	574.81
528.654	542.81
529.108	590.81
529.562	560.81
530.016	574.81
530.47	547.81
530.925	583.81
531.379	577.81
531.833	585.81
532.287	578.81
532.741	589.81
533.195	591.81
533.649	577.81
534.103	565.81
534.556	551.81
535.01	574.81
535.464	580.81
535.918	572.81
536.372	594.81
536.826	581.81
537.279	563.81
537.733	586.81
538.187	576.81
538.64	599.81
539.094	599.81
539.548	597.81
540.001	556.81
540.455	577.81
540.908	566.81
541.362	573.81
541.815	624.81
542.269	635.81
542.722	618.81
543.175	587.81
543.629	611.81
544.082	617.81
544.536	631.81
544.989	613.81
545.442	611.81
545.895	625.81
546.349	650.81
546.802	645.81
547.255	619.81
547.708	637.81
548.161	640.81
548.614	633.81
549.067	665.81
549.52	618.81
549.973	637.81
550.426	641.81
550.879	628.81
551.332	637.81
551.785	645.81
552.238	655.81
552.691	658.81
553.144	651.81
553.596	669.81
554.049	677.81
554.502	656.81
554.955	691.81
555.407	701.81
555.86	688.81
556.313	687.81
556.765	691.81
557.218	663.81
557.67	681.81
558.123	655.81
558.576	657.81
559.028	638.81
559.48	647.81
559.933	627.81
560.385	658.81
560.838	623.81
561.29	615.81
561.742	609.81
562.195	609.81
562.647	590.81
563.099	599.81
563.551	569.81
564.004	597.81
564.456	613.81
564.908	579.81
565.36	557.81
565.812	589.81
566.264	579.81
566.716	566.81
567.168	560.81
567.62	559.81
568.072	540.81
568.524	543.81
568.976	553.81
569.428	531.81
569.88	540.81
570.332	553.81
570.784	523.81
571.235	534.81
571.687	541.81
572.139	549.81
572.59	545.81
573.042	569.81
573.494	561.81
573.945	526.81
574.397	531.81
574.849	517.81
575.3	560.81
575.752	537.81
576.203	511.81
576.655	546.81
577.106	522.81
577.557	515.81
578.009	518.81
578.46	537.81
578.912	513.81
579.363	500.81
579.814	520.81
580.265	506.81
580.717	519.81
581.168	510.81
581.619	518.81
582.07	534.81
582.521	528.81
582.972	515.81
583.423	529.81
583.875	550.81
584.326	545.81
584.777	612.81
585.227	701.81
585.678	741.81
586.129	809.81
586.58	830.81
587.031	848.81
587.482	892.81
587.933	1093.81
588.384	1005.81
588.834	804.81
589.285	624.81
589.736	594.81
590.186	568.81
590.637	590.81
591.088	564.81
591.538	537.81
591.989	581.81
592.439	587.81
592.89	536.81
593.34	553.81
593.791	579.81
594.241	570.81
594.692	565.81
595.142	569.81
595.593	540.81
596.043	570.81
596.493	561.81
596.943	572.81
597.394	551.81
597.844	538.81
598.294	566.81
598.744	570.81
599.195	584.81
599.645	634.81
600.095	625.81
600.545	679.81
600.995	719.81
601.445	704.81
601.895	769.81
602.345	769.81
602.795	771.81
603.245	749.81
603.695	721.81
604.145	697.81
604.594	657.81
605.044	612.81
605.494	602.81
605.944	558.81
606.393	558.81
606.843	541.81
607.293	571.81
607.743	545.81
608.192	541.81
608.642	546.81
609.091	554.81
609.541	550.81
609.99	570.81
610.44	531.81
610.889	545.81
611.339	554.81
611.788	527.81
612.238	553.81
612.687	539.81
613.136	562.81
613.586	540.81
614.035	544.81
614.484	549.81
614.933	567.81
615.383	567.81
615.832	549.81
616.281	530.81
616.73	516.81
617.179	527.81
617.628	536.81
618.077	487.81
618.526	480.81
618.975	467.81
619.424	474.81
619.873	466.81
620.322	468.81
620.771	486.81
621.22	483.81
621.669	457.81
622.118	462.81
622.567	459.81
623.015	442.81
623.464	451.81
623.913	417.81
624.361	459.81
624.81	436.81
625.259	452.81
625.707	431.81
626.156	440.81
626.604	463.81
627.053	437.81
627.501	428.81
627.95	438.81
628.398	450.81
628.847	439.81
629.295	436.81
629.744	445.81
630.192	463.81
630.64	449.81
631.089	499.81
631.537	573.81
631.985	545.81
632.433	573.81
632.881	590.81
633.33	623.81
633.778	755.81
634.226	555.81
634.674	500.81
635.122	512.81
635.57	515.81
636.018	565.81
636.466	515.81
636.914	445.81
637.362	429.81
637.81	447.81
638.258	458.81
638.705	443.81
639.153	477.81
639.601	471.81
640.049	451.81
640.497	483.81
640.944	471.81
641.392	487.81
641.84	479.81
642.287	444.81
642.735	425.81
643.182	426.81
643.63	453.81
644.078	437.81
644.525	437.81
644.973	433.81
645.42	446.81
645.867	471.81
646.315	473.81
646.762	473.81
647.21	509.81
647.657	508.81
648.104	541.81
648.551	545.81
648.999	596.81
649.446	613.81
649.893	698.81
650.34	817.81
650.787	947.81
651.234	1193.81
651.682	1584.81
652.129	2237.81
652.576	3158.81
653.023	4499.81
653.47	5615.81
653.917	6291.81
654.363	6635.81
654.81	6908.81
655.257	7302.81
655.704	5400.81
656.151	3187.81
656.598	2049.81
657.044	1452.81
657.491	1131.81
657.938	928.81
658.385	793.81
658.831	683.81
659.278	608.81
659.724	571.81
660.171	515.81
660.618	500.81
661.064	461.81
661.511	417.81
661.957	427.81
662.404	410.81
662.85	433.81
663.296	418.81
663.743	414.81
664.189	394.81
664.635	399.81
665.082	428.81
665.528	424.81
665.974	395.81
666.42	400.81
666.867	382.81
667.313	377.81
667.759	421.81
668.205	432.81
668.651	461.81
669.097	437.81
669.543	461.81
669.989	472.81
670.435	383.81
670.881	360.81
671.327	373.81
671.773	363.81
672.219	406.81
672.665	431.81
673.11	445.81
673.556	453.81
674.002	462.81
674.448	470.81
674.893	413.81
675.339	375.81
675.785	346.81
676.23	318.81
676.676	319.81
677.122	344.81
677.567	311.81
678.013	291.81
678.458	314.81
678.904	304.81
679.349	301.81
679.794	309.81
680.24	310.81
680.685	314.81
681.131	268.81
681.576	301.81
682.021	281.81
682.466	301.81
682.912	293.81
683.357	317.81
683.802	320.81
684.247	342.81
684.692	359.81
685.137	385.81
685.583	383.81
686.028	398.81
686.473	385.81
686.918	331.81
687.363	322.81
687.807	321.81
688.252	309.81
688.697	310.81
689.142	289.81
689.587	285.81
690.032	280.81
690.477	310.81
690.921	311.81
691.366	301.81
691.811	341.81
692.255	345.81
692.7	373.81
693.145	505.81
693.589	677.81
694.034	864.81
694.478	966.81
694.923	923.81
695.367	1080.81
695.812	951.81
696.256	449.81
696.701	334.81
697.145	317.81
697.59	273.81
698.034	291.81
698.478	304.81
698.922	291.81
699.367	273.81
699.811	291.81
700.255	300.81
700.699	319.81
701.143	348.81
701.588	371.81
702.032	391.81
702.476	395.81
702.92	383.81
703.364	443.81
703.808	610.81
704.252	798.81
704.696	900.81
705.14	876.81
705.584	1068.81
706.027	848.81
706.471	449.81
706.915	317.81
707.359	303.81
707.803	290.81
708.246	297.81
708.69	276.81
709.134	274.81
709.577	259.81
710.021	261.81
710.465	280.81
710.908	251.81
711.352	294.81
711.795	293.81
712.239	320.81
712.682	342.81
713.126	339.81
713.569	324.81
714.012	328.81
714.456	291.81
714.899	286.81
715.342	269.81
715.786	232.81
716.229	264.81
716.672	240.81
717.115	232.81
717.558	253.81
718.002	242.81
718.445	241.81
718.888	237.81
719.331	280.81
719.774	249.81
720.217	266.81
720.66	261.81
721.103	240.81
721.546	249.81
721.989	223.81
722.432	231.81
722.874	235.81
723.317	233.81
723.76	220.81
724.203	269.81
724.645	324.81
725.088	365.81
725.531	409.81
725.974	369.81
726.416	405.81
726.859	290.81
727.301	245.81
727.744	226.81
728.187	233.81
728.629	243.81
729.071	243.81
729.514	221.81
729.956	239.81
730.399	271.81
730.841	268.81
731.283	251.81
731.726	252.81
732.168	242.81
732.61	272.81
733.053	272.81
733.495	276.81
733.937	299.81
734.379	347.81
734.821	373.81
735.263	494.81
735.705	814.81
736.148	1259.81
736.59	1461.81
737.032	1356.81
737.474	1426.81
737.916	705.81
738.357	377.81
738.799	293.81
739.241	272.81
739.683	269.81
740.125	258.81
740.567	259.81
741.008	279.81
741.45	290.81
741.892	279.81
742.334	279.81
742.775	294.81
743.217	289.81
743.658	275.81
744.1	250.81
744.542	274.81
744.983	296.81
745.425	293.81
745.866	283.81
746.307	247.81
746.749	273.81
747.19	321.81
747.632	511.81
748.073	913.81
748.514	1331.81
748.956	1607.81
749.397	2156.81
749.838	1701.81
750.279	1415.81
750.72	1030.81
751.162	510.81
751.603	307.81
752.044	224.81
752.485	231.81
752.926	214.81
753.367	213.81
753.808	216.81
754.249	213.81
754.69	204.81
755.131	194.81
755.572	204.81
